X Coordinates:
0,10,10,0,10,10,0,0,3.52708,1.6658,1.17785,2.37786,6.0119,5.70387,6.54927,7.84921,8.52026,7.18626,4.85084,4.06652,5.39624,0.588925,9.26013,9.20404,9.60202,8.48649,6.01513,5.08081,6.78069,1.63785,0.849176,0.424588,3.87973,4.29272,3.39258,2.89359,2.4497,7.46663,7.932,3.06802,9.58743,9.41437,0.679113,0.505577,5.17995,4.61711,4.99398,4.25279,7.36355,7.83646,2.89152,2.50797,1.98953,6.82861,6.27989,7.61292,8.14336,3.41187,3.61662,3.9746,5.73862,5.83267,6.61708,1.37641,0.923254,1.687,8.63445,9.16642,8.45344,3.73424,3.0515,
Volumes:
0.106987,0.123809,0.0608253,0.0731229,0.176025,0.212238,0.168634,0.217726,0.0968474,0.129671,0.18228,0.164442,0.12324,0.105591,0.120156,0.290644,0.236471,0.15311,0.137764,0.21258,0.125858,0.235208,0.282678,0.17073,0.0953264,0.241189,0.341187,0.34723,0.314,0.314354,0.206598,0.138283,0.074094,0.186838,0.120666,0.0810627,0.205524,0.210513,0.181217,0.200958,0.159971,0.554068,0.499451,0.265876,0.298535,0.450682,0.643031,0.403143,0.376951,0.321949,0.657396,0.494223,0.496441,0.429068,0.289318,0.457791,0.279433,0.383137,0.329784,0.431308,0.332494,0.567443,0.612825,0.380565,0.351926,0.647314,0.379604,0.362211,0.490162,0.231881,0.256345,

 Time(s),  sigmaYY(Pa) on vertices
0,-774.943,-774.943,-774.943,-774.943,-774.943,-774.943,-774.943,-774.943,-774.943,-774.943,-774.943,-774.943,-774.943,-774.943,-774.943,-774.943,-774.943,-774.943,-774.943,-774.943,-774.943,-774.943,-774.943,-774.943,-774.943,-774.943,-774.943,-774.943,-774.943,-774.943,-774.943,-774.943,-774.943,-774.943,-774.943,-774.943,-774.943,-774.943,-774.943,-774.943,-774.943,-774.943,-774.943,-774.943,-774.943,-774.943,-774.943,-774.943,-774.943,-774.943,-774.943,-774.943,-774.943,-774.943,-774.943,-774.943,-774.943,-774.943,-774.943,-774.943,-774.943,-774.943,-774.943,-774.943,-774.943,-774.943,-774.943,-774.943,-774.943,-774.943,-774.943,
25,-785.069,-829.178,-830.652,-785.069,-827.825,-828.345,-785.069,-785.069,-785.072,-785.069,-785.069,-785.069,-785.138,-785.115,-785.205,-786.685,-795.202,-785.462,-785.083,-785.078,-785.095,-785.069,-812.317,-803.606,-820.653,-794.806,-785.04,-785.054,-785.083,-785.069,-785.069,-785.069,-785.064,-785.059,-785.066,-785.067,-785.068,-785.329,-787.412,-785.07,-822.2,-814.84,-785.069,-785.069,-785.084,-785.077,-785.054,-785.066,-785.331,-787.446,-785.07,-785.069,-785.069,-785.318,-785.107,-786.06,-788.142,-785.067,-785.072,-785.07,-785.09,-785.046,-785.093,-785.069,-785.069,-785.069,-797.154,-807.897,-794.049,-785.066,-785.068,
50,-788.987,-836.497,-838.304,-788.987,-835.833,-836.356,-788.987,-788.987,-788.989,-788.987,-788.987,-788.987,-789.221,-789.122,-789.694,-794.893,-806.97,-791.536,-789.01,-788.997,-789.052,-788.987,-822.936,-816.034,-830.998,-806.476,-789.171,-788.995,-790.017,-788.987,-788.987,-788.987,-788.982,-788.976,-788.985,-788.986,-788.986,-791.504,-796.56,-788.987,-831.79,-824.996,-788.987,-788.987,-789.038,-789.001,-788.984,-788.985,-791.413,-796.406,-788.987,-788.987,-788.987,-790.586,-789.312,-793.535,-798.154,-788.985,-788.989,-788.988,-789.117,-789.163,-789.891,-788.987,-788.987,-788.987,-808.973,-819.445,-805.503,-788.984,-788.986,
75,-792.088,-841.417,-843.075,-792.089,-840.933,-841.385,-792.089,-792.089,-792.093,-792.087,-792.088,-792.088,-793.022,-792.651,-794.261,-802.139,-815.187,-797.615,-792.199,-792.116,-792.391,-792.088,-829.74,-823.775,-837.022,-814.594,-792.948,-792.277,-794.938,-792.09,-792.089,-792.089,-792.089,-792.104,-792.09,-792.091,-792.09,-797.632,-804.285,-792.088,-837.582,-831.499,-792.089,-792.089,-792.359,-792.165,-792.226,-792.123,-797.435,-804.005,-792.09,-792.089,-792.088,-795.821,-793.359,-800.387,-806.215,-792.091,-792.096,-792.111,-792.688,-792.886,-794.614,-792.088,-792.089,-792.089,-817.043,-826.687,-813.638,-792.093,-792.091,
100,-794.737,-845.261,-846.74,-794.738,-844.855,-845.239,-794.737,-794.737,-794.771,-794.734,-794.735,-794.738,-796.794,-796.073,-798.77,-808.284,-821.458,-803.195,-795.094,-794.85,-795.556,-794.736,-834.836,-829.462,-841.445,-820.796,-796.652,-795.338,-799.674,-794.74,-794.739,-794.738,-794.773,-794.871,-794.755,-794.747,-794.743,-803.237,-810.66,-794.744,-841.895,-836.389,-794.737,-794.738,-795.487,-795.002,-795.226,-794.903,-802.959,-810.317,-794.751,-794.742,-794.737,-800.786,-797.388,-806.344,-812.713,-794.761,-794.781,-794.846,-796.161,-796.511,-799.182,-794.736,-794.738,-794.74,-823.166,-832.053,-819.892,-794.78,-794.751,
125,-797.089,-848.489,-849.82,-797.091,-848.127,-848.459,-797.091,-797.09,-797.207,-797.087,-797.088,-797.105,-800.494,-799.434,-803.065,-813.547,-826.541,-808.201,-797.867,-797.395,-798.655,-797.089,-838.972,-834.027,-845.048,-825.845,-800.275,-798.313,-804.114,-797.1,-797.094,-797.092,-797.23,-797.472,-797.162,-797.124,-797.109,-808.261,-816.035,-797.129,-845.432,-840.377,-797.09,-797.091,-798.545,-797.697,-798.133,-797.517,-807.926,-815.661,-797.144,-797.111,-797.097,-805.379,-801.306,-811.525,-818.113,-797.177,-797.231,-797.383,-799.571,-800.051,-803.498,-797.089,-797.092,-797.101,-828.125,-836.388,-824.993,-797.24,-797.144,
150,-799.232,-851.312,-852.528,-799.234,-850.981,-851.274,-799.233,-799.233,-799.501,-799.237,-799.233,-799.285,-804.066,-802.712,-807.09,-818.135,-830.835,-812.692,-800.577,-799.842,-801.695,-799.233,-842.493,-837.883,-848.145,-830.129,-803.777,-801.228,-808.235,-799.259,-799.241,-799.235,-799.567,-799.995,-799.417,-799.323,-799.28,-812.766,-820.674,-799.343,-848.486,-843.787,-799.234,-799.234,-801.546,-800.316,-800.981,-800.047,-812.393,-820.284,-799.368,-799.291,-799.262,-809.6,-805.051,-816.088,-822.734,-799.442,-799.544,-799.814,-802.892,-803.476,-807.53,-799.235,-799.239,-799.261,-832.319,-840.069,-829.322,-799.577,-799.371,
175,-801.217,-853.848,-854.973,-801.218,-853.54,-853.804,-801.218,-801.217,-801.71,-801.241,-801.224,-801.337,-807.483,-805.883,-810.845,-822.202,-834.572,-816.748,-803.234,-802.23,-804.662,-801.22,-845.588,-841.249,-850.895,-833.869,-807.132,-804.078,-812.053,-801.273,-801.234,-801.22,-801.836,-802.47,-801.581,-801.406,-801.318,-816.835,-824.759,-801.444,-851.203,-846.793,-801.223,-801.219,-804.479,-802.882,-803.77,-802.522,-816.436,-824.362,-801.482,-801.344,-801.29,-813.481,-808.6,-820.159,-826.78,-801.614,-801.775,-802.18,-806.1,-806.765,-811.285,-801.229,-801.233,-801.279,-835.972,-843.296,-833.101,-801.843,-801.494,
200,-803.081,-856.169,-857.22,-803.081,-855.878,-856.12,-803.081,-803.081,-803.86,-803.14,-803.101,-803.3,-810.734,-808.936,-814.348,-825.861,-837.895,-820.441,-805.837,-804.573,-807.542,-803.088,-848.368,-844.256,-853.387,-837.202,-810.333,-806.853,-815.597,-803.183,-803.112,-803.084,-804.061,-804.902,-803.687,-803.412,-803.262,-820.539,-828.414,-803.468,-853.671,-849.502,-803.093,-803.083,-807.33,-805.397,-806.493,-804.951,-820.123,-828.015,-803.52,-803.308,-803.22,-817.064,-811.952,-823.838,-830.389,-803.726,-803.948,-804.497,-809.182,-809.91,-814.784,-803.109,-803.111,-803.193,-839.226,-846.188,-836.467,-804.061,-803.549,
225,-804.851,-858.319,-859.31,-804.849,-858.044,-858.268,-804.849,-804.851,-805.967,-804.961,-804.89,-805.201,-813.824,-811.864,-817.624,-829.191,-840.901,-823.833,-808.379,-806.875,-810.327,-804.865,-850.906,-846.988,-855.682,-840.22,-813.38,-809.547,-818.898,-805.014,-804.901,-804.854,-806.25,-807.291,-805.752,-805.366,-805.138,-823.938,-831.728,-805.437,-855.946,-851.98,-804.872,-804.854,-810.092,-807.858,-809.14,-807.334,-823.511,-831.33,-805.505,-805.209,-805.078,-820.388,-815.118,-827.197,-833.654,-805.792,-806.077,-806.771,-812.136,-812.911,-818.054,-804.905,-804.902,-805.031,-842.171,-848.823,-839.514,-806.243,-805.555,
250,-806.549,-860.333,-861.272,-806.544,-860.071,-860.28,-806.545,-806.548,-808.037,-806.725,-806.614,-807.055,-816.76,-814.671,-820.696,-832.253,-843.653,-826.969,-810.857,-809.134,-813.015,-806.572,-853.251,-849.5,-857.818,-842.987,-816.28,-812.157,-821.985,-806.787,-806.624,-806.552,-808.405,-809.633,-807.784,-807.279,-806.965,-827.081,-834.765,-807.363,-858.066,-854.275,-806.581,-806.553,-812.761,-810.263,-811.71,-809.668,-826.648,-834.37,-807.447,-807.062,-806.884,-823.487,-818.112,-830.291,-836.643,-807.821,-808.167,-809.001,-814.962,-815.774,-821.12,-806.636,-806.627,-806.812,-844.872,-851.252,-842.307,-808.389,-807.524,
275,-808.191,-862.233,-863.128,-808.184,-861.982,-862.179,-808.185,-808.19,-810.071,-808.444,-808.288,-808.872,-819.553,-817.36,-823.588,-835.092,-846.201,-829.89,-813.268,-811.348,-815.607,-808.225,-855.44,-851.835,-859.824,-845.548,-819.043,-814.68,-824.884,-808.516,-808.296,-808.195,-810.525,-811.925,-809.784,-809.16,-808.753,-830.006,-837.575,-809.254,-860.059,-856.42,-808.238,-808.196,-815.336,-812.608,-814.2,-811.951,-829.569,-837.183,-809.354,-808.879,-808.648,-826.39,-820.947,-833.163,-839.406,-809.817,-810.222,-811.187,-817.668,-818.507,-824.005,-808.318,-808.301,-808.548,-847.373,-853.515,-844.891,-810.5,-809.46,
300,-809.792,-864.038,-864.894,-809.78,-863.795,-863.982,-809.782,-809.79,-812.072,-810.131,-809.924,-810.659,-822.213,-819.937,-826.32,-837.742,-848.578,-832.624,-815.611,-813.517,-818.104,-809.837,-857.498,-854.022,-861.721,-847.939,-821.679,-817.12,-827.618,-810.209,-809.929,-809.796,-812.61,-814.164,-811.754,-811.013,-810.51,-832.744,-840.193,-811.114,-861.944,-858.44,-809.854,-809.797,-817.821,-814.892,-816.611,-814.181,-832.305,-839.806,-811.229,-810.664,-810.38,-829.122,-823.64,-835.847,-841.98,-811.78,-812.24,-813.329,-820.259,-821.119,-826.729,-809.963,-809.937,-810.25,-849.709,-855.639,-847.303,-812.574,-811.367,
325,-811.36,-865.759,-866.582,-811.345,-865.526,-865.703,-811.348,-811.358,-814.039,-811.79,-811.53,-812.42,-824.753,-822.411,-828.908,-840.231,-850.811,-835.198,-817.888,-815.639,-820.512,-811.419,-859.445,-856.085,-863.524,-850.185,-824.198,-819.478,-830.204,-811.874,-811.531,-811.364,-814.656,-816.35,-813.693,-812.84,-812.241,-835.321,-842.648,-812.946,-863.737,-860.353,-811.439,-811.367,-820.219,-817.117,-818.946,-816.357,-834.881,-842.266,-813.075,-812.423,-812.086,-831.703,-826.203,-838.37,-844.394,-813.712,-814.223,-815.425,-822.743,-823.618,-829.31,-811.58,-811.543,-811.924,-851.906,-857.646,-849.568,-814.611,-813.246,
350,-812.904,-867.409,-868.202,-812.885,-867.183,-867.352,-812.889,-812.902,-815.972,-813.428,-813.114,-814.157,-827.182,-824.787,-831.37,-842.581,-852.921,-837.632,-820.098,-817.714,-822.834,-812.977,-861.296,-858.041,-865.247,-852.308,-826.61,-821.758,-832.661,-813.517,-813.111,-812.909,-816.664,-818.482,-815.603,-814.642,-813.949,-837.756,-844.964,-814.75,-865.452,-862.175,-813,-812.912,-822.533,-819.282,-821.206,-818.48,-837.317,-844.587,-814.895,-814.159,-813.768,-834.152,-828.648,-840.753,-846.67,-815.613,-816.171,-817.476,-825.127,-826.014,-831.764,-813.173,-813.126,-813.576,-853.984,-859.551,-851.708,-816.609,-815.097,
375,-814.43,-868.996,-869.762,-814.407,-868.776,-868.938,-814.411,-814.427,-817.872,-815.047,-814.68,-815.873,-829.509,-827.073,-833.717,-844.809,-854.925,-839.942,-822.246,-819.743,-825.076,-814.517,-863.065,-859.904,-866.899,-854.325,-828.923,-823.965,-835,-815.14,-814.672,-814.435,-818.633,-820.561,-817.481,-816.42,-815.637,-840.067,-847.158,-816.53,-867.096,-863.917,-814.544,-814.44,-824.768,-821.389,-823.395,-820.55,-839.63,-846.786,-816.687,-815.873,-815.431,-836.482,-830.986,-843.013,-848.828,-817.482,-818.084,-819.481,-827.42,-828.314,-834.104,-814.749,-814.69,-815.208,-855.958,-861.369,-853.74,-818.569,-816.921,
400,-815.943,-870.526,-871.268,-815.916,-870.313,-870.469,-815.92,-815.939,-819.738,-816.651,-816.231,-817.569,-831.744,-829.275,-835.961,-846.93,-856.836,-842.142,-824.332,-821.725,-827.243,-816.042,-864.761,-861.686,-868.489,-856.247,-831.146,-826.101,-837.236,-816.747,-816.219,-815.947,-820.563,-822.589,-819.329,-818.175,-817.306,-842.268,-849.245,-818.284,-868.679,-865.588,-816.073,-815.953,-826.93,-823.44,-825.517,-822.57,-841.833,-848.879,-818.454,-817.566,-817.075,-838.706,-833.228,-845.165,-850.88,-819.321,-819.961,-821.443,-829.628,-830.527,-836.341,-816.309,-816.24,-816.823,-857.841,-863.109,-855.677,-820.491,-818.718,
425,-817.444,-872.006,-872.726,-817.413,-871.798,-871.949,-817.419,-817.44,-821.572,-818.241,-817.77,-819.245,-833.893,-831.4,-838.112,-848.956,-858.665,-844.245,-826.361,-823.663,-829.34,-817.557,-866.393,-863.396,-870.023,-858.087,-833.286,-828.172,-839.377,-818.339,-817.754,-817.449,-822.455,-824.568,-821.147,-819.907,-818.957,-844.371,-851.239,-820.015,-870.208,-867.197,-817.591,-817.456,-829.022,-825.438,-827.576,-824.541,-843.939,-850.878,-820.196,-819.24,-818.703,-840.836,-835.381,-847.22,-852.841,-821.13,-821.805,-823.362,-831.757,-832.659,-838.486,-817.858,-817.778,-818.422,-859.645,-864.782,-857.53,-822.375,-820.488,
450,-818.937,-873.44,-874.141,-818.903,-873.238,-873.383,-818.909,-818.933,-823.373,-819.818,-819.3,-820.902,-835.965,-833.454,-840.178,-850.898,-860.421,-846.261,-828.335,-825.558,-831.37,-819.062,-867.967,-865.042,-871.508,-859.853,-835.35,-830.181,-841.434,-819.917,-819.279,-818.943,-824.31,-826.499,-822.934,-821.616,-820.591,-846.387,-853.148,-821.722,-871.686,-868.75,-819.1,-818.95,-831.05,-827.386,-829.575,-826.464,-845.958,-852.792,-821.914,-820.896,-820.316,-842.88,-837.454,-849.19,-854.72,-822.909,-823.616,-825.24,-833.814,-834.717,-840.546,-819.396,-819.306,-820.008,-861.378,-866.393,-859.309,-824.223,-822.233,
475,-820.423,-874.834,-875.516,-820.385,-874.636,-874.777,-820.392,-820.419,-825.144,-821.382,-820.82,-822.541,-837.965,-835.44,-842.168,-852.763,-862.111,-848.198,-830.257,-827.412,-833.339,-820.56,-869.489,-866.631,-872.947,-861.554,-837.343,-832.132,-843.413,-821.483,-820.794,-820.429,-826.129,-828.384,-824.693,-823.303,-822.208,-848.323,-854.983,-823.407,-873.121,-870.253,-820.601,-820.437,-833.016,-829.284,-831.518,-828.342,-847.898,-854.632,-823.609,-822.533,-821.913,-844.846,-839.453,-851.083,-856.526,-824.659,-825.394,-827.078,-835.803,-836.706,-842.53,-820.924,-820.825,-821.581,-863.047,-867.95,-861.02,-826.035,-823.952,
500,-821.903,-876.189,-876.855,-821.862,-875.996,-876.133,-821.87,-821.898,-826.884,-822.936,-822.332,-824.163,-839.898,-837.366,-844.088,-854.56,-863.743,-850.063,-832.129,-829.226,-835.251,-822.051,-870.963,-868.167,-874.345,-863.195,-839.272,-834.029,-845.321,-823.037,-822.302,-821.909,-827.912,-830.225,-826.423,-824.969,-823.81,-850.188,-856.75,-825.07,-874.514,-871.711,-822.095,-821.918,-834.926,-831.137,-833.408,-830.178,-849.766,-856.403,-825.28,-824.153,-823.497,-846.741,-841.384,-852.906,-858.265,-826.381,-827.141,-828.878,-837.73,-838.631,-844.444,-822.443,-822.335,-823.142,-864.658,-869.457,-862.672,-827.813,-825.647,
525,-823.378,-877.51,-878.16,-823.334,-877.321,-877.454,-823.342,-823.372,-828.595,-824.478,-823.835,-825.767,-841.771,-839.234,-845.943,-856.295,-865.321,-851.863,-833.956,-831.002,-837.109,-823.536,-872.395,-869.657,-875.705,-864.782,-841.141,-835.875,-847.166,-824.58,-823.802,-823.383,-829.662,-832.025,-828.125,-826.613,-825.397,-851.988,-858.455,-826.712,-875.87,-873.126,-823.582,-823.393,-836.783,-832.946,-835.249,-831.972,-851.57,-858.114,-826.93,-825.755,-825.066,-848.572,-843.252,-854.666,-859.945,-828.076,-828.858,-830.642,-839.599,-840.498,-846.294,-823.954,-823.838,-824.69,-866.218,-870.919,-864.269,-829.557,-827.317,
550,-824.847,-878.8,-879.435,-824.8,-878.614,-878.744,-824.808,-824.841,-830.278,-826.009,-825.332,-827.355,-843.588,-841.049,-847.74,-857.973,-866.851,-853.605,-835.738,-832.742,-838.917,-825.014,-873.788,-871.104,-877.031,-866.32,-842.955,-837.674,-848.951,-826.111,-825.294,-824.853,-831.38,-833.786,-829.801,-828.237,-826.968,-853.728,-860.105,-828.333,-877.193,-874.504,-825.063,-824.863,-838.591,-834.715,-837.043,-833.728,-853.314,-859.768,-828.558,-827.341,-826.622,-850.345,-845.063,-856.368,-861.57,-829.745,-830.546,-832.371,-841.414,-842.311,-848.085,-825.457,-825.333,-826.227,-867.73,-872.34,-865.817,-831.27,-828.964,
575,-826.311,-880.059,-880.681,-826.261,-879.877,-880.004,-826.27,-826.305,-831.934,-827.529,-826.82,-828.926,-845.353,-842.814,-849.483,-859.6,-868.336,-855.292,-837.48,-834.448,-840.679,-826.486,-875.144,-872.511,-878.325,-867.813,-844.718,-839.428,-850.682,-827.632,-826.779,-826.317,-833.067,-835.51,-831.45,-829.84,-828.525,-855.415,-861.704,-829.934,-878.483,-875.846,-826.537,-826.328,-840.352,-836.444,-838.794,-835.448,-855.004,-861.371,-830.165,-828.911,-828.165,-852.062,-846.822,-858.017,-863.146,-831.389,-832.207,-834.067,-843.18,-844.073,-849.822,-826.951,-826.82,-827.752,-869.199,-873.723,-867.319,-832.952,-830.588,
600,-827.769,-881.292,-881.901,-827.717,-881.113,-881.236,-827.727,-827.763,-833.565,-829.039,-828.301,-830.481,-847.069,-844.533,-851.175,-861.178,-869.78,-856.928,-839.183,-836.121,-842.397,-827.953,-876.467,-873.882,-879.59,-869.265,-846.433,-841.14,-852.363,-829.141,-828.257,-827.775,-834.724,-837.199,-833.075,-831.425,-830.067,-857.051,-863.256,-831.516,-879.744,-877.156,-828.005,-827.787,-842.07,-838.137,-840.505,-837.132,-856.644,-862.928,-831.752,-830.465,-829.694,-853.73,-848.531,-859.617,-864.676,-833.008,-833.841,-835.732,-844.899,-845.788,-851.51,-828.437,-828.299,-829.266,-870.628,-875.072,-868.78,-834.606,-832.191,
625,-829.222,-882.498,-883.096,-829.168,-882.323,-882.443,-829.178,-829.215,-835.17,-830.537,-829.774,-832.021,-848.74,-846.21,-852.821,-862.713,-871.187,-858.519,-840.849,-837.764,-844.074,-829.412,-877.759,-875.219,-880.827,-870.68,-848.104,-842.813,-853.998,-830.64,-829.727,-829.228,-836.353,-838.854,-834.676,-832.99,-831.594,-858.641,-864.765,-833.078,-880.978,-878.436,-829.467,-829.24,-843.748,-839.795,-842.176,-838.784,-858.237,-864.441,-833.319,-832.003,-831.21,-855.352,-850.194,-861.173,-866.164,-834.604,-835.449,-837.367,-846.575,-847.46,-853.151,-829.914,-829.771,-830.768,-872.02,-876.388,-870.202,-836.231,-833.772,
650,-830.669,-883.681,-884.267,-830.613,-883.509,-883.627,-830.623,-830.662,-836.751,-832.025,-831.239,-833.545,-850.369,-847.846,-854.424,-864.207,-872.559,-860.068,-842.481,-839.376,-845.713,-830.865,-879.023,-876.525,-882.039,-872.059,-849.733,-844.45,-855.589,-832.127,-831.19,-830.675,-837.955,-840.478,-836.254,-834.536,-833.108,-860.189,-866.235,-834.622,-882.187,-879.687,-830.921,-830.687,-845.387,-841.421,-843.812,-840.404,-859.789,-865.914,-834.868,-833.525,-832.714,-856.93,-851.815,-862.688,-867.613,-836.177,-837.034,-838.973,-848.211,-849.091,-854.749,-831.383,-831.235,-832.259,-873.378,-877.674,-871.589,-837.83,-835.332,
675,-832.109,-884.842,-885.417,-832.052,-884.672,-884.787,-832.062,-832.102,-838.31,-833.502,-832.695,-835.053,-851.96,-849.445,-855.987,-865.664,-873.899,-861.577,-844.081,-840.961,-847.316,-832.311,-880.26,-877.802,-883.226,-873.405,-851.324,-846.052,-857.141,-833.604,-832.644,-832.115,-839.531,-842.071,-837.81,-836.065,-834.608,-861.697,-867.668,-836.149,-883.372,-880.913,-832.369,-832.128,-846.991,-843.016,-845.413,-841.995,-861.301,-867.351,-836.398,-835.033,-834.205,-858.47,-853.397,-864.164,-869.026,-837.729,-838.594,-840.552,-849.809,-850.683,-856.308,-832.844,-832.691,-833.739,-874.705,-878.932,-872.942,-839.403,-836.873,
700,-833.543,-885.981,-886.547,-833.484,-885.814,-885.927,-833.495,-833.536,-839.846,-834.969,-834.143,-836.547,-853.513,-851.009,-857.513,-867.086,-875.208,-863.049,-845.65,-842.519,-848.885,-833.75,-881.472,-879.053,-884.391,-874.721,-852.88,-847.621,-858.656,-835.07,-834.09,-833.549,-841.082,-843.637,-839.344,-837.576,-836.093,-863.168,-869.066,-837.657,-884.534,-882.115,-833.809,-833.563,-848.561,-844.581,-846.983,-843.557,-862.776,-868.753,-837.91,-836.526,-835.683,-859.972,-854.942,-865.605,-870.406,-839.259,-840.132,-842.106,-851.371,-852.24,-857.83,-834.295,-834.138,-835.207,-876.002,-880.164,-874.265,-840.952,-838.394,
725,-834.97,-887.1,-887.657,-834.91,-886.936,-887.047,-834.921,-834.963,-841.361,-836.424,-835.583,-838.026,-855.033,-852.54,-859.004,-868.476,-876.49,-864.488,-847.19,-844.052,-850.422,-835.181,-882.66,-880.278,-885.535,-876.009,-854.401,-849.159,-860.136,-836.525,-835.527,-834.976,-842.61,-845.175,-840.858,-839.07,-837.566,-864.606,-870.433,-839.149,-885.676,-883.293,-835.241,-834.99,-850.1,-846.118,-848.523,-845.093,-864.217,-870.123,-839.404,-838.004,-837.148,-861.439,-856.452,-867.013,-871.755,-840.769,-841.649,-843.635,-852.901,-853.764,-859.317,-835.737,-835.577,-836.664,-877.272,-881.372,-875.56,-842.478,-839.897,
750,-836.39,-888.201,-888.749,-836.329,-888.039,-888.148,-836.34,-836.382,-842.856,-837.868,-837.013,-839.491,-856.521,-854.04,-860.463,-869.835,-877.745,-865.894,-848.702,-845.56,-851.93,-836.605,-883.827,-881.479,-886.659,-877.271,-855.891,-850.669,-861.584,-837.968,-836.956,-836.396,-844.115,-846.687,-842.352,-840.548,-839.024,-866.011,-871.77,-840.625,-886.797,-884.45,-836.665,-836.41,-851.609,-847.629,-850.033,-846.604,-865.626,-871.464,-840.882,-839.468,-838.601,-862.875,-857.93,-868.389,-873.075,-842.26,-843.145,-845.14,-854.399,-855.257,-860.772,-837.17,-837.007,-838.11,-878.516,-882.557,-876.828,-843.982,-841.382,
775,-837.802,-889.284,-889.823,-837.739,-889.124,-889.231,-837.751,-837.794,-844.331,-839.301,-838.435,-840.941,-857.979,-855.51,-861.891,-871.165,-878.976,-867.271,-850.189,-847.046,-853.409,-838.02,-884.972,-882.658,-887.764,-878.507,-857.351,-852.151,-863.002,-839.401,-838.376,-837.808,-845.599,-848.176,-843.827,-842.009,-840.47,-867.387,-873.079,-842.084,-887.9,-885.587,-838.081,-837.822,-853.09,-849.115,-851.517,-848.09,-867.005,-872.776,-842.343,-840.917,-840.042,-864.28,-859.378,-869.737,-874.367,-843.732,-844.62,-846.623,-855.868,-856.72,-862.196,-838.594,-838.427,-839.544,-879.736,-883.72,-878.07,-845.464,-842.849,
800,-839.206,-890.35,-890.881,-839.143,-890.192,-890.298,-839.154,-839.198,-845.787,-840.723,-839.847,-842.377,-859.408,-856.953,-863.29,-872.469,-880.183,-868.619,-851.65,-848.509,-854.862,-839.426,-886.098,-883.815,-888.851,-879.72,-858.783,-853.607,-864.391,-840.822,-839.787,-839.212,-847.062,-849.64,-845.283,-843.455,-841.902,-868.734,-874.362,-843.528,-888.985,-886.704,-839.489,-839.226,-854.544,-850.578,-852.976,-849.553,-868.356,-874.063,-843.788,-842.353,-841.47,-865.657,-860.797,-871.058,-875.634,-845.186,-846.077,-848.084,-857.309,-858.155,-863.592,-840.008,-839.839,-840.967,-880.933,-884.863,-879.289,-846.926,-844.299,
825,-840.601,-891.4,-891.923,-840.537,-891.244,-891.348,-840.549,-840.593,-847.225,-842.134,-841.249,-843.8,-860.811,-858.37,-864.663,-873.748,-881.369,-869.942,-853.088,-849.951,-856.29,-840.824,-887.206,-884.953,-889.922,-880.912,-860.188,-855.039,-865.753,-842.233,-841.188,-840.607,-848.505,-851.083,-846.721,-844.885,-843.322,-870.056,-875.62,-844.956,-890.053,-887.803,-840.887,-840.622,-855.973,-852.017,-854.41,-850.995,-869.681,-875.325,-845.217,-843.775,-842.886,-867.007,-862.189,-872.353,-876.877,-846.622,-847.515,-849.524,-858.724,-859.564,-864.961,-841.412,-841.241,-842.379,-882.109,-885.987,-880.486,-848.367,-845.733,
850,-841.988,-892.434,-892.95,-841.924,-892.28,-892.383,-841.936,-841.981,-848.645,-843.534,-842.642,-845.209,-862.188,-859.763,-866.01,-875.004,-882.534,-871.239,-854.504,-851.373,-857.693,-842.214,-888.296,-886.073,-890.976,-882.082,-861.569,-856.447,-867.09,-843.632,-842.58,-841.995,-849.928,-852.505,-848.142,-846.299,-844.728,-871.352,-876.856,-846.369,-891.105,-888.885,-842.277,-842.009,-857.379,-853.435,-855.821,-852.415,-870.981,-876.563,-846.631,-845.184,-844.29,-868.332,-863.557,-873.624,-878.098,-848.041,-848.935,-850.945,-860.114,-860.948,-866.305,-842.806,-842.633,-843.779,-883.264,-887.093,-881.662,-849.79,-847.15,
875,-843.367,-893.454,-893.963,-843.302,-893.302,-893.403,-843.314,-843.359,-850.048,-844.923,-844.025,-846.605,-863.542,-861.132,-867.333,-876.237,-883.68,-872.513,-855.898,-852.775,-859.074,-843.593,-889.369,-887.174,-892.014,-883.233,-862.926,-857.834,-868.403,-845.02,-843.962,-843.373,-851.334,-853.906,-849.546,-847.7,-846.122,-872.626,-878.069,-847.768,-892.142,-889.95,-843.657,-843.388,-858.761,-854.832,-857.21,-853.815,-872.258,-877.78,-848.03,-846.579,-845.681,-869.634,-864.9,-874.872,-879.297,-849.444,-850.337,-852.347,-861.481,-862.308,-867.624,-844.19,-844.016,-845.168,-884.401,-888.181,-882.818,-851.195,-848.552,
900,-844.736,-894.459,-894.962,-844.671,-894.31,-894.409,-844.682,-844.728,-851.435,-846.3,-845.398,-847.988,-864.873,-862.479,-868.634,-877.449,-884.807,-873.766,-857.272,-854.159,-860.433,-844.964,-890.426,-888.258,-893.038,-884.365,-864.26,-859.199,-869.694,-846.396,-845.335,-844.742,-852.721,-855.287,-850.934,-849.085,-847.503,-873.877,-879.262,-849.152,-893.164,-891,-845.028,-844.757,-860.122,-856.209,-858.578,-855.196,-873.512,-878.976,-849.414,-847.962,-847.061,-870.913,-866.22,-876.099,-880.476,-850.831,-851.723,-853.73,-862.826,-863.647,-868.922,-845.564,-845.388,-846.545,-885.519,-889.252,-883.955,-852.582,-849.938,
925,-846.096,-895.452,-895.948,-846.031,-895.304,-895.401,-846.042,-846.088,-852.805,-847.666,-846.761,-849.357,-866.183,-863.805,-869.913,-878.641,-885.916,-874.997,-858.627,-855.525,-861.771,-846.325,-891.467,-889.326,-894.048,-885.479,-865.573,-860.543,-870.963,-847.762,-846.697,-846.102,-854.091,-856.65,-852.306,-850.457,-848.871,-875.107,-880.436,-850.522,-894.172,-892.034,-846.389,-846.117,-861.463,-857.568,-859.926,-856.558,-874.746,-880.152,-850.785,-849.331,-848.428,-872.171,-867.519,-877.306,-881.635,-852.201,-853.093,-855.096,-864.149,-864.964,-870.198,-846.927,-846.751,-847.911,-886.62,-890.308,-885.074,-853.952,-851.31,
950,-847.447,-896.431,-896.921,-847.381,-896.285,-896.381,-847.393,-847.439,-854.16,-849.021,-848.114,-850.714,-867.472,-865.11,-871.172,-879.814,-887.009,-876.208,-859.962,-856.873,-863.09,-847.677,-892.495,-890.379,-895.044,-886.577,-866.866,-861.869,-872.211,-849.116,-848.049,-847.453,-855.445,-857.995,-853.663,-851.814,-850.228,-876.317,-881.59,-851.878,-895.167,-893.055,-847.741,-847.468,-862.784,-858.908,-861.255,-857.903,-875.96,-881.31,-852.141,-850.687,-849.784,-873.408,-868.798,-878.493,-882.777,-853.557,-854.447,-856.445,-865.453,-866.261,-871.453,-848.28,-848.103,-849.265,-887.704,-891.349,-886.176,-855.305,-852.667,
975,-848.788,-897.398,-897.881,-848.722,-897.253,-897.348,-848.734,-848.78,-855.499,-850.365,-849.456,-852.058,-868.742,-866.397,-872.411,-880.969,-888.085,-877.4,-861.28,-858.205,-864.39,-849.018,-893.508,-891.417,-896.027,-887.658,-868.14,-863.176,-873.441,-850.459,-849.391,-848.794,-856.782,-859.323,-855.004,-853.158,-851.572,-877.509,-882.727,-853.221,-896.148,-894.061,-849.083,-848.809,-864.086,-860.23,-862.565,-859.23,-877.154,-882.45,-853.483,-852.031,-851.128,-874.627,-870.057,-879.662,-883.901,-854.898,-855.785,-857.777,-866.737,-867.539,-872.689,-849.623,-849.446,-850.608,-888.773,-892.375,-887.262,-856.643,-854.009,
1000,-850.12,-898.352,-898.83,-850.053,-898.209,-898.303,-850.065,-850.111,-856.824,-851.698,-850.789,-853.389,-869.993,-867.665,-873.631,-882.107,-889.147,-878.575,-862.58,-859.52,-865.672,-850.35,-894.507,-892.44,-896.998,-888.724,-869.395,-864.465,-874.652,-851.791,-850.723,-850.126,-858.104,-860.634,-856.331,-854.489,-852.904,-878.682,-883.848,-854.55,-897.117,-895.054,-850.414,-850.141,-865.37,-861.535,-863.858,-860.541,-878.331,-883.573,-854.812,-853.362,-852.46,-875.827,-871.297,-880.813,-885.009,-856.224,-857.109,-859.094,-868.003,-868.798,-873.907,-850.955,-850.778,-851.94,-889.826,-893.388,-888.332,-857.965,-855.338,
1025,-851.441,-899.295,-899.767,-851.375,-899.154,-899.247,-851.387,-851.433,-858.134,-853.019,-852.11,-854.708,-871.226,-868.916,-874.834,-883.228,-890.194,-879.732,-863.864,-860.82,-866.937,-851.672,-895.494,-893.45,-897.956,-889.775,-870.632,-865.737,-875.845,-853.112,-852.045,-851.447,-859.411,-861.929,-857.644,-855.806,-854.223,-879.839,-884.952,-855.867,-898.074,-896.035,-851.736,-851.463,-866.637,-862.825,-865.134,-861.835,-879.491,-884.679,-856.127,-854.681,-853.78,-877.009,-872.52,-881.947,-886.1,-857.536,-858.418,-860.395,-869.251,-870.04,-875.107,-852.277,-852.099,-853.261,-890.865,-894.387,-889.388,-859.271,-856.653,
1050,-852.753,-900.227,-900.694,-852.687,-900.087,-900.179,-852.699,-852.745,-859.43,-854.33,-853.422,-856.015,-872.442,-870.149,-876.02,-884.334,-891.226,-880.873,-865.132,-862.104,-868.185,-852.983,-896.468,-894.447,-898.903,-890.812,-871.853,-866.992,-877.022,-854.422,-853.356,-852.759,-860.703,-863.208,-858.943,-857.111,-855.531,-880.978,-886.04,-857.17,-899.02,-897.003,-853.048,-852.774,-867.887,-864.098,-866.394,-863.114,-880.634,-885.771,-857.43,-855.988,-855.089,-878.175,-873.725,-883.066,-887.177,-858.835,-859.712,-861.681,-870.482,-871.264,-876.29,-853.588,-853.411,-854.57,-891.891,-895.373,-890.429,-860.564,-857.955,
1075,-854.055,-901.148,-901.609,-853.989,-901.01,-901.1,-854.001,-854.047,-860.713,-855.629,-854.723,-857.31,-873.642,-871.367,-877.189,-885.424,-892.245,-881.998,-866.384,-863.374,-869.416,-854.285,-897.43,-895.431,-899.838,-891.835,-873.057,-868.232,-878.182,-855.72,-854.657,-854.061,-861.98,-864.472,-860.228,-858.403,-856.827,-882.102,-887.114,-858.461,-899.954,-897.959,-854.349,-854.076,-869.121,-865.356,-867.638,-864.379,-881.761,-886.847,-858.72,-857.283,-856.386,-879.325,-874.915,-884.169,-888.239,-860.12,-860.993,-862.952,-871.697,-872.473,-877.456,-854.889,-854.711,-855.869,-892.902,-896.347,-891.456,-861.841,-859.244,
1100,-855.347,-902.058,-902.514,-855.281,-901.922,-902.011,-855.293,-855.339,-861.982,-856.917,-856.013,-858.593,-874.826,-872.569,-878.343,-886.5,-893.251,-883.108,-867.621,-864.63,-870.633,-855.576,-898.381,-896.403,-900.763,-892.845,-874.245,-869.457,-879.327,-857.008,-855.947,-855.353,-863.244,-865.721,-861.5,-859.682,-858.112,-883.211,-888.173,-859.739,-900.877,-898.904,-855.64,-855.368,-870.339,-866.6,-868.867,-865.628,-882.873,-887.909,-859.997,-858.566,-857.672,-880.459,-876.088,-885.258,-889.287,-861.392,-862.261,-864.21,-872.896,-873.666,-878.608,-856.179,-856.002,-857.156,-893.902,-897.309,-892.47,-863.106,-860.519,
1125,-856.629,-902.958,-903.409,-856.563,-902.823,-902.911,-856.575,-856.62,-863.238,-858.195,-857.293,-859.864,-875.995,-873.755,-879.482,-887.562,-894.245,-884.203,-868.844,-865.871,-871.834,-856.857,-899.32,-897.364,-901.677,-893.843,-875.419,-870.667,-880.457,-858.284,-857.227,-856.634,-864.494,-866.957,-862.759,-860.949,-859.385,-884.306,-889.219,-861.006,-901.79,-899.838,-856.921,-856.65,-871.543,-867.829,-870.081,-866.863,-883.97,-888.957,-861.262,-859.837,-858.946,-881.579,-877.247,-886.332,-890.321,-862.651,-863.515,-865.453,-874.081,-874.844,-879.744,-857.458,-857.282,-858.432,-894.888,-898.26,-893.472,-864.356,-861.783,
1150,-857.9,-903.848,-904.294,-857.835,-903.714,-903.802,-857.846,-857.892,-864.481,-859.461,-858.563,-861.124,-877.15,-874.928,-880.607,-888.61,-895.226,-885.284,-870.052,-867.099,-873.021,-858.128,-900.249,-898.313,-902.58,-894.829,-876.577,-871.862,-881.572,-859.55,-858.497,-857.906,-865.73,-868.178,-864.005,-862.204,-860.646,-885.386,-890.252,-862.26,-902.692,-900.76,-858.192,-857.921,-872.732,-869.044,-871.28,-868.085,-885.054,-889.992,-862.515,-861.096,-860.209,-882.684,-878.39,-887.392,-891.343,-863.897,-864.756,-866.683,-875.25,-876.007,-880.866,-858.727,-858.551,-859.697,-895.863,-899.2,-894.461,-865.593,-863.033,
1175,-859.162,-904.728,-905.17,-859.096,-904.596,-904.682,-859.108,-859.154,-865.711,-860.716,-859.822,-862.371,-878.29,-876.086,-881.717,-889.646,-896.196,-886.352,-871.247,-868.314,-874.194,-859.389,-901.167,-899.251,-903.474,-895.802,-877.722,-873.044,-882.674,-860.805,-859.756,-859.167,-866.954,-869.386,-865.238,-863.447,-861.896,-886.453,-891.272,-863.502,-903.584,-901.673,-859.452,-859.183,-873.908,-870.245,-872.466,-869.293,-886.124,-891.015,-863.755,-862.344,-861.461,-883.775,-879.52,-888.44,-892.352,-865.13,-865.985,-867.9,-876.406,-877.156,-881.974,-859.986,-859.81,-860.951,-896.826,-900.128,-895.439,-866.818,-864.272,
1200,-860.413,-905.599,-906.036,-860.348,-905.468,-905.554,-860.36,-860.405,-866.929,-861.961,-861.07,-863.608,-879.417,-877.23,-882.814,-890.669,-897.154,-887.407,-872.428,-869.516,-875.354,-860.639,-902.074,-900.178,-904.357,-896.764,-878.853,-874.212,-883.762,-862.049,-861.005,-860.419,-868.165,-870.581,-866.46,-864.678,-863.135,-887.507,-892.279,-864.732,-904.467,-902.575,-860.702,-860.434,-875.07,-871.434,-873.639,-870.488,-887.181,-892.025,-864.984,-863.581,-862.702,-884.854,-880.636,-889.475,-893.349,-866.352,-867.201,-869.104,-877.548,-878.292,-883.068,-861.233,-861.058,-862.194,-897.778,-901.046,-896.404,-868.029,-865.498,
1225,-861.654,-906.461,-906.893,-861.589,-906.331,-906.416,-861.601,-861.646,-868.135,-863.195,-862.308,-864.833,-880.53,-878.362,-883.898,-891.68,-898.102,-888.449,-873.597,-870.705,-876.5,-861.879,-902.972,-901.095,-905.232,-897.715,-879.971,-875.367,-884.838,-863.282,-862.243,-861.66,-869.364,-871.763,-867.669,-865.897,-864.363,-888.548,-893.275,-865.951,-905.34,-903.467,-861.942,-861.675,-876.218,-872.609,-874.798,-871.671,-888.225,-893.023,-866.202,-864.806,-863.932,-885.919,-881.739,-890.497,-894.334,-867.561,-868.405,-870.296,-878.677,-879.414,-884.15,-862.471,-862.296,-863.427,-898.719,-901.954,-897.359,-869.228,-866.713,
1250,-862.885,-907.313,-907.741,-862.82,-907.185,-907.268,-862.832,-862.877,-869.329,-864.418,-863.536,-866.047,-881.631,-879.48,-884.97,-892.679,-899.038,-889.479,-874.753,-871.882,-877.634,-863.109,-903.859,-902.001,-906.097,-898.656,-881.076,-876.509,-885.901,-864.504,-863.471,-862.891,-870.55,-872.932,-868.866,-867.105,-865.579,-889.577,-894.259,-867.158,-906.204,-904.35,-863.171,-862.906,-877.354,-873.772,-875.945,-872.841,-889.257,-894.009,-867.407,-866.02,-865.151,-886.972,-882.829,-891.507,-895.307,-868.759,-869.597,-871.475,-879.793,-880.524,-885.219,-863.698,-863.524,-864.648,-899.649,-902.852,-898.303,-870.415,-867.916,
1275,-864.106,-908.157,-908.58,-864.041,-908.03,-908.112,-864.053,-864.098,-870.511,-865.631,-864.753,-867.25,-882.719,-880.586,-886.029,-893.667,-899.964,-890.497,-875.896,-873.046,-878.755,-864.329,-904.737,-902.898,-906.952,-899.585,-882.169,-877.639,-886.951,-865.716,-864.689,-864.111,-871.724,-874.09,-870.052,-868.302,-866.785,-890.594,-895.232,-868.354,-907.058,-905.223,-864.391,-864.126,-878.477,-874.923,-877.079,-873.998,-890.277,-894.985,-868.602,-867.223,-866.359,-888.013,-883.907,-892.506,-896.27,-869.945,-870.777,-872.643,-880.896,-881.621,-886.275,-864.914,-864.741,-865.859,-900.569,-903.74,-899.236,-871.591,-869.108,
1300,-865.316,-908.992,-909.411,-865.252,-908.866,-908.948,-865.264,-865.308,-871.682,-866.833,-865.96,-868.442,-883.795,-881.68,-887.076,-894.643,-900.88,-891.503,-877.028,-874.199,-879.864,-865.538,-905.606,-903.785,-907.799,-900.505,-883.249,-878.756,-887.99,-866.917,-865.896,-865.322,-872.887,-875.235,-871.226,-869.488,-867.98,-891.6,-896.194,-869.539,-907.904,-906.088,-865.6,-865.337,-879.589,-876.062,-878.201,-875.144,-891.285,-895.949,-869.785,-868.416,-867.557,-889.042,-884.973,-893.494,-897.222,-871.119,-871.946,-873.798,-881.987,-882.706,-887.32,-866.12,-865.948,-867.06,-901.479,-904.619,-900.159,-872.754,-870.288,
1325,-866.517,-909.818,-910.233,-866.453,-909.694,-909.775,-866.465,-866.509,-872.841,-868.024,-867.157,-869.623,-884.859,-882.762,-888.111,-895.609,-901.786,-892.499,-878.147,-875.34,-880.961,-866.737,-906.466,-904.663,-908.638,-901.415,-884.318,-879.862,-889.017,-868.108,-867.093,-866.522,-874.038,-876.369,-872.389,-870.662,-869.164,-892.595,-897.145,-870.713,-908.741,-906.943,-866.798,-866.537,-880.688,-877.189,-879.311,-876.278,-892.283,-896.902,-870.957,-869.597,-868.743,-890.06,-886.027,-894.47,-898.164,-872.283,-873.104,-874.942,-883.067,-883.779,-888.353,-867.316,-867.145,-868.25,-902.38,-905.489,-901.072,-873.906,-871.457,
1350,-867.707,-910.636,-911.047,-867.644,-910.513,-910.593,-867.655,-867.699,-873.989,-869.205,-868.343,-870.794,-885.912,-883.833,-889.135,-896.564,-902.683,-893.483,-879.255,-876.47,-882.046,-867.926,-907.317,-905.531,-909.467,-902.315,-885.375,-880.957,-890.033,-869.288,-868.28,-867.712,-875.178,-877.491,-873.54,-871.826,-870.338,-893.578,-898.086,-871.876,-909.57,-907.789,-867.987,-867.727,-881.776,-878.305,-880.41,-877.401,-893.269,-897.846,-872.119,-870.767,-869.92,-891.066,-887.069,-895.436,-899.095,-873.435,-874.25,-876.075,-884.135,-884.841,-889.375,-868.501,-868.332,-869.429,-903.27,-906.349,-901.976,-875.047,-872.615,
1375,-868.887,-911.446,-911.853,-868.825,-911.324,-911.403,-868.836,-868.879,-875.126,-870.376,-869.52,-871.954,-886.953,-884.892,-890.148,-897.509,-903.57,-894.457,-880.352,-877.589,-883.12,-869.105,-908.159,-906.391,-910.289,-903.205,-886.421,-882.039,-891.038,-870.458,-869.456,-868.893,-876.307,-878.602,-874.681,-872.979,-871.501,-894.551,-899.017,-873.028,-910.39,-908.626,-869.165,-868.907,-882.852,-879.409,-881.498,-878.513,-894.245,-898.779,-873.269,-871.927,-871.085,-892.062,-888.101,-896.392,-900.016,-874.576,-875.385,-877.197,-885.191,-885.891,-890.386,-869.676,-869.508,-870.598,-904.152,-907.2,-902.869,-876.176,-873.762,
1400,-870.057,-912.248,-912.651,-869.995,-912.127,-912.206,-870.006,-870.05,-876.253,-871.536,-870.686,-873.103,-887.984,-885.94,-891.151,-898.444,-904.448,-895.42,-881.438,-878.697,-884.183,-870.274,-908.993,-907.241,-911.102,-904.086,-887.456,-883.111,-892.032,-871.618,-870.623,-870.063,-877.424,-879.702,-875.811,-874.121,-872.653,-895.514,-899.938,-874.17,-911.202,-909.456,-870.334,-870.077,-883.917,-880.502,-882.574,-879.613,-895.21,-899.702,-874.409,-873.077,-872.241,-893.047,-889.121,-897.337,-900.928,-875.707,-876.509,-878.307,-886.237,-886.931,-891.386,-870.841,-870.674,-871.757,-905.024,-908.043,-903.754,-877.295,-874.899,
1425,-871.218,-913.042,-913.441,-871.156,-912.922,-913,-871.167,-871.21,-877.368,-872.686,-871.842,-874.242,-889.004,-886.977,-892.143,-899.37,-905.316,-896.374,-882.513,-879.794,-885.235,-871.432,-909.818,-908.084,-911.907,-904.959,-888.48,-884.172,-893.016,-872.767,-871.779,-871.223,-878.531,-880.791,-876.93,-875.252,-873.795,-896.466,-900.849,-875.301,-912.007,-910.276,-871.492,-871.237,-884.972,-881.584,-883.64,-880.702,-896.165,-900.616,-875.538,-874.216,-873.386,-894.022,-890.131,-898.273,-901.83,-876.826,-877.623,-879.407,-887.272,-887.959,-892.376,-871.996,-871.83,-872.905,-905.887,-908.878,-904.629,-878.403,-876.025,
1450,-872.368,-913.829,-914.224,-872.306,-913.71,-913.787,-872.317,-872.36,-878.474,-873.826,-872.987,-875.371,-890.013,-888.004,-893.124,-900.285,-906.176,-897.317,-883.577,-880.88,-886.277,-872.581,-910.635,-908.917,-912.704,-905.822,-889.494,-885.223,-893.99,-873.906,-872.925,-872.373,-879.628,-881.869,-878.039,-876.374,-874.927,-897.409,-901.751,-876.422,-912.803,-911.089,-872.64,-872.388,-886.016,-882.656,-884.694,-881.781,-897.111,-901.52,-876.657,-875.345,-874.521,-894.986,-891.131,-899.199,-902.723,-877.936,-878.726,-880.496,-888.296,-888.978,-893.355,-873.141,-872.976,-874.043,-906.741,-909.704,-905.495,-879.5,-877.14,
1475,-873.508,-914.607,-914.998,-873.447,-914.49,-914.566,-873.458,-873.501,-879.568,-874.956,-874.123,-876.489,-891.012,-889.02,-894.096,-901.191,-907.028,-898.251,-884.631,-881.956,-887.308,-873.72,-911.444,-909.743,-913.493,-906.676,-890.497,-886.263,-894.954,-875.036,-874.062,-873.513,-880.714,-882.937,-879.137,-877.485,-876.049,-898.342,-902.644,-877.532,-913.591,-911.894,-873.779,-873.528,-887.049,-883.717,-885.739,-882.85,-898.046,-902.415,-877.766,-876.464,-875.645,-895.941,-892.12,-900.115,-903.606,-879.035,-879.819,-881.575,-889.31,-889.985,-894.324,-874.276,-874.112,-875.171,-907.587,-910.522,-906.353,-880.587,-878.245,
1500,-874.639,-915.378,-915.766,-874.578,-915.262,-915.337,-874.589,-874.631,-880.653,-876.076,-875.249,-877.598,-892.001,-890.026,-895.057,-902.088,-907.87,-899.175,-885.674,-883.021,-888.329,-874.849,-912.246,-910.56,-914.275,-907.522,-891.491,-887.292,-895.907,-876.155,-875.188,-874.644,-881.789,-883.994,-880.225,-878.586,-877.161,-899.265,-903.528,-878.632,-914.372,-912.691,-874.907,-874.658,-888.072,-884.768,-886.773,-883.908,-898.972,-903.301,-878.864,-877.572,-876.76,-896.886,-893.099,-901.022,-904.481,-880.123,-880.901,-882.643,-890.313,-890.983,-895.284,-875.401,-875.238,-876.29,-908.425,-911.331,-907.202,-881.664,-879.34,
1525,-875.759,-916.142,-916.526,-875.699,-916.027,-916.101,-875.71,-875.752,-881.727,-877.186,-876.366,-878.696,-892.98,-891.023,-896.009,-902.976,-908.705,-900.09,-886.707,-884.076,-889.34,-875.968,-913.039,-911.369,-915.049,-908.36,-892.474,-888.312,-896.852,-877.264,-876.305,-875.765,-882.855,-885.042,-881.303,-879.676,-878.262,-900.179,-904.403,-879.723,-915.145,-913.48,-876.026,-875.779,-889.085,-885.809,-887.797,-884.956,-899.889,-904.177,-879.953,-878.671,-877.865,-897.821,-894.068,-901.92,-905.347,-881.202,-881.974,-883.702,-891.307,-891.971,-896.234,-876.516,-876.354,-877.398,-909.254,-912.133,-908.043,-882.73,-880.425,
1550,-876.87,-916.899,-917.279,-876.811,-916.784,-916.858,-876.821,-876.863,-882.792,-878.286,-877.472,-879.784,-893.949,-892.009,-896.952,-903.856,-909.531,-900.995,-887.731,-885.121,-890.341,-877.077,-913.824,-912.17,-915.816,-909.189,-893.448,-889.322,-897.787,-878.364,-877.411,-876.875,-883.91,-886.079,-882.371,-880.757,-879.354,-901.084,-905.269,-880.803,-915.911,-914.261,-877.135,-876.889,-890.088,-886.84,-888.811,-885.994,-900.796,-905.046,-881.031,-879.759,-878.96,-898.747,-895.028,-902.809,-906.205,-882.271,-883.036,-884.75,-892.291,-892.949,-897.174,-877.621,-877.461,-878.496,-910.075,-912.927,-908.875,-883.786,-881.5,
1575,-877.972,-917.648,-918.024,-877.912,-917.535,-917.608,-877.923,-877.964,-883.846,-879.376,-878.569,-880.863,-894.909,-892.986,-897.885,-904.726,-910.349,-901.892,-888.744,-886.157,-891.332,-878.177,-914.603,-912.964,-916.575,-910.011,-894.412,-890.322,-898.712,-879.453,-878.508,-877.977,-884.955,-887.106,-883.429,-881.828,-880.436,-901.98,-906.126,-881.873,-916.669,-915.035,-878.234,-877.991,-891.081,-887.861,-889.815,-887.022,-901.695,-905.905,-882.1,-880.838,-880.045,-899.664,-895.978,-903.689,-907.054,-883.329,-884.089,-885.788,-893.265,-893.917,-898.105,-878.717,-878.557,-879.585,-910.888,-913.714,-909.699,-884.833,-882.565,
1600,-879.063,-918.39,-918.763,-879.004,-918.278,-918.351,-879.015,-879.056,-884.891,-880.457,-879.656,-881.932,-895.859,-893.953,-898.809,-905.588,-911.159,-902.78,-889.748,-887.183,-892.313,-879.267,-915.373,-913.749,-917.328,-910.824,-895.366,-891.312,-899.629,-880.533,-879.596,-879.068,-885.991,-888.124,-884.477,-882.889,-881.508,-902.867,-906.976,-882.934,-917.421,-915.802,-879.324,-879.082,-892.065,-888.872,-890.81,-888.04,-902.584,-906.757,-883.159,-881.907,-881.12,-900.572,-896.919,-904.56,-907.894,-884.378,-885.131,-886.817,-894.23,-894.876,-899.027,-879.802,-879.644,-880.664,-911.693,-914.493,-910.515,-885.869,-883.62,
1625,-880.145,-919.125,-919.495,-880.087,-919.014,-919.086,-880.098,-880.138,-885.926,-881.528,-880.733,-882.991,-896.8,-894.911,-899.724,-906.442,-911.961,-903.659,-890.742,-888.199,-893.285,-880.348,-916.136,-914.528,-918.073,-911.629,-896.312,-892.293,-900.536,-881.604,-880.674,-880.15,-887.017,-889.132,-885.516,-883.941,-882.571,-903.745,-907.817,-883.985,-918.165,-916.561,-880.404,-880.164,-893.04,-889.874,-891.795,-889.049,-903.465,-907.599,-884.208,-882.966,-882.186,-901.471,-897.851,-905.423,-908.727,-885.418,-886.164,-887.836,-895.185,-895.826,-899.94,-880.879,-880.722,-881.733,-912.491,-915.264,-911.324,-886.897,-884.666,
1650,-881.218,-919.854,-920.22,-881.16,-919.744,-919.815,-881.171,-881.211,-886.952,-882.59,-881.801,-884.041,-897.733,-895.859,-900.63,-907.287,-912.756,-904.53,-891.727,-889.205,-894.248,-881.419,-916.892,-915.299,-918.811,-912.427,-897.248,-893.264,-901.435,-882.665,-881.742,-881.223,-888.034,-890.131,-886.545,-884.983,-883.624,-904.615,-908.649,-885.027,-918.902,-917.313,-881.474,-881.236,-894.005,-890.866,-892.771,-890.048,-904.338,-908.434,-885.248,-884.016,-883.242,-902.362,-898.774,-906.278,-909.551,-886.447,-887.188,-888.845,-896.132,-896.767,-900.844,-881.946,-881.79,-882.793,-913.28,-916.028,-912.124,-887.914,-885.702,
1675,-882.281,-920.575,-920.938,-882.224,-920.466,-920.537,-882.234,-882.274,-887.968,-883.642,-882.86,-885.081,-898.656,-896.799,-901.527,-908.124,-913.543,-905.392,-892.703,-890.202,-895.202,-882.48,-917.641,-916.062,-919.542,-913.217,-898.176,-894.226,-902.325,-883.716,-882.801,-882.286,-889.041,-891.12,-887.564,-886.015,-884.668,-905.476,-909.474,-886.059,-919.633,-918.058,-882.536,-882.3,-894.96,-891.849,-893.737,-891.038,-905.202,-909.261,-886.278,-885.057,-884.289,-903.243,-899.687,-907.124,-910.368,-887.468,-888.202,-889.846,-897.069,-897.698,-901.74,-883.003,-882.848,-883.844,-914.063,-916.785,-912.917,-888.922,-886.728,
1700,-883.335,-921.29,-921.649,-883.278,-921.182,-921.252,-883.288,-883.328,-888.974,-884.685,-883.909,-886.112,-899.57,-897.73,-902.416,-908.953,-914.323,-906.246,-893.669,-891.19,-896.147,-883.532,-918.383,-916.819,-920.266,-914,-899.094,-895.179,-903.207,-884.758,-883.851,-883.34,-890.039,-892.1,-888.575,-887.039,-885.702,-906.33,-910.291,-887.082,-920.356,-918.796,-883.587,-883.353,-895.907,-892.823,-894.695,-892.019,-906.057,-910.08,-887.299,-886.088,-885.326,-904.117,-900.593,-907.962,-911.176,-888.479,-889.207,-890.836,-897.997,-898.621,-902.626,-884.051,-883.898,-884.885,-914.837,-917.535,-913.702,-889.921,-887.745,
1725,-884.379,-921.998,-922.354,-884.323,-921.891,-921.96,-884.333,-884.373,-889.972,-885.718,-884.949,-887.134,-900.476,-898.652,-903.296,-909.774,-915.095,-907.092,-894.626,-892.169,-897.083,-884.575,-919.118,-917.568,-920.984,-914.775,-900.004,-896.124,-904.08,-885.791,-884.891,-884.384,-891.027,-893.071,-889.576,-888.053,-886.727,-907.175,-911.1,-888.095,-921.073,-919.527,-884.63,-884.398,-896.845,-893.787,-895.643,-892.991,-906.905,-910.891,-888.311,-887.11,-886.355,-904.982,-901.489,-908.792,-911.977,-889.481,-890.203,-891.818,-898.917,-899.535,-903.505,-885.09,-884.938,-885.917,-915.605,-918.278,-914.48,-890.911,-888.753,
1750,-885.415,-922.7,-923.053,-885.359,-922.594,-922.662,-885.369,-885.408,-890.961,-886.742,-885.979,-888.146,-901.373,-899.565,-904.168,-910.588,-915.86,-907.929,-895.575,-893.139,-898.01,-885.609,-919.846,-918.31,-921.695,-915.543,-900.905,-897.059,-904.945,-886.815,-885.922,-885.42,-892.007,-894.033,-890.568,-889.057,-887.743,-908.012,-911.902,-889.099,-921.783,-920.252,-885.663,-885.433,-897.774,-894.743,-896.583,-893.953,-907.744,-911.694,-889.313,-888.122,-887.373,-905.838,-902.377,-909.615,-912.771,-890.473,-891.189,-892.791,-899.828,-900.44,-904.375,-886.119,-885.968,-886.939,-916.365,-919.013,-915.251,-891.891,-889.752,
1775,-886.441,-923.395,-923.744,-886.385,-923.29,-923.358,-886.396,-886.434,-891.94,-887.758,-887.001,-889.149,-902.261,-900.469,-905.032,-911.394,-916.618,-908.759,-896.514,-894.099,-898.928,-886.634,-920.568,-919.046,-922.399,-916.303,-901.798,-897.986,-905.801,-887.829,-886.944,-886.446,-892.978,-894.986,-891.55,-890.053,-888.75,-908.841,-912.695,-890.095,-922.487,-920.969,-886.687,-886.459,-898.695,-895.69,-897.513,-894.907,-908.576,-912.49,-890.307,-889.126,-888.383,-906.687,-903.257,-910.429,-913.557,-891.457,-892.166,-893.755,-900.73,-901.337,-905.236,-887.139,-886.99,-887.953,-917.118,-919.742,-916.014,-892.863,-890.742,
1800,-887.458,-924.084,-924.43,-887.403,-923.98,-924.047,-887.413,-887.451,-892.911,-888.764,-888.013,-890.144,-903.142,-901.366,-905.887,-912.192,-917.368,-909.581,-897.445,-895.051,-899.838,-887.649,-921.282,-919.774,-923.097,-917.057,-902.682,-898.904,-906.65,-888.835,-887.957,-887.463,-893.939,-895.931,-892.524,-891.04,-889.748,-909.662,-913.482,-891.081,-923.184,-921.68,-887.702,-887.476,-899.606,-896.628,-898.436,-895.852,-909.4,-913.278,-891.291,-890.12,-889.384,-907.528,-904.128,-911.236,-914.335,-892.432,-893.135,-894.709,-901.624,-902.226,-906.09,-888.151,-888.002,-888.957,-917.864,-920.464,-916.77,-893.825,-891.723,
1825,-888.466,-924.766,-925.109,-888.412,-924.663,-924.73,-888.421,-888.459,-893.872,-889.761,-889.016,-891.129,-904.014,-902.253,-906.735,-912.982,-918.112,-910.396,-898.368,-895.994,-900.739,-888.656,-921.99,-920.496,-923.788,-917.803,-903.558,-899.813,-907.491,-889.831,-888.961,-888.471,-894.892,-896.866,-893.489,-892.017,-890.736,-910.476,-914.261,-892.058,-923.874,-922.385,-888.708,-888.484,-900.51,-897.557,-899.349,-896.788,-910.215,-914.059,-892.267,-891.106,-890.376,-908.361,-904.991,-912.036,-915.107,-893.397,-894.095,-895.656,-902.509,-903.106,-906.936,-889.153,-889.006,-889.952,-918.604,-921.18,-917.519,-894.779,-892.695,
1850,-889.465,-925.442,-925.782,-889.411,-925.34,-925.406,-889.421,-889.459,-894.825,-890.749,-890.011,-892.106,-904.878,-903.133,-907.574,-913.766,-918.849,-911.202,-899.281,-896.929,-901.632,-889.653,-922.692,-921.211,-924.473,-918.543,-904.426,-900.714,-908.323,-890.819,-889.956,-889.47,-895.836,-897.793,-894.446,-892.986,-891.716,-911.282,-915.033,-893.027,-924.558,-923.082,-889.705,-889.483,-901.405,-898.478,-900.254,-897.716,-911.024,-914.833,-893.233,-892.083,-891.359,-909.186,-905.847,-912.828,-915.871,-894.354,-895.046,-896.593,-903.386,-903.978,-907.774,-890.146,-890,-890.939,-919.336,-921.889,-918.262,-895.724,-893.658,
1875,-890.456,-926.112,-926.449,-890.402,-926.011,-926.076,-890.412,-890.449,-895.769,-891.728,-890.997,-893.073,-905.733,-904.004,-908.406,-914.542,-919.579,-912.002,-900.187,-897.855,-902.516,-890.642,-923.387,-921.92,-925.152,-919.276,-905.286,-901.607,-909.149,-891.797,-890.942,-890.46,-896.772,-898.712,-895.393,-893.947,-892.687,-912.08,-915.797,-893.987,-925.236,-923.774,-890.694,-890.473,-902.291,-899.391,-901.151,-898.635,-911.825,-915.599,-894.191,-893.051,-892.333,-910.003,-906.694,-913.612,-916.628,-895.303,-895.988,-897.522,-904.256,-904.842,-908.604,-891.131,-890.986,-891.917,-920.062,-922.591,-918.997,-896.661,-894.612,
1900,-891.437,-926.776,-927.11,-891.384,-926.676,-926.74,-891.393,-891.431,-896.705,-892.699,-891.974,-894.032,-906.581,-904.868,-909.23,-915.311,-920.302,-912.793,-901.084,-898.773,-903.393,-891.622,-924.075,-922.622,-925.825,-920.002,-906.138,-902.492,-909.966,-892.767,-891.919,-891.442,-897.699,-899.622,-896.332,-894.898,-893.65,-912.871,-916.555,-894.938,-925.908,-924.459,-891.673,-891.454,-903.17,-900.295,-902.04,-899.546,-912.618,-916.358,-895.141,-894.01,-893.298,-910.813,-907.533,-914.389,-917.378,-896.243,-896.922,-898.442,-905.117,-905.697,-909.426,-892.106,-891.963,-892.886,-920.78,-923.287,-919.725,-897.589,-895.558,
1925,-892.41,-927.434,-927.765,-892.357,-927.334,-927.399,-892.367,-892.403,-897.632,-893.661,-892.942,-894.983,-907.422,-905.723,-910.047,-916.072,-921.019,-913.578,-901.973,-899.682,-904.261,-892.593,-924.758,-923.317,-926.491,-920.721,-906.982,-903.368,-910.776,-893.729,-892.888,-892.414,-898.617,-900.523,-897.263,-895.841,-894.603,-913.655,-917.305,-895.88,-926.574,-925.138,-892.644,-892.427,-904.04,-901.191,-902.92,-900.448,-913.404,-917.111,-896.082,-894.961,-894.255,-911.615,-908.365,-915.159,-918.121,-897.174,-897.847,-899.354,-905.97,-906.545,-910.241,-893.073,-892.931,-893.846,-921.493,-923.976,-920.447,-898.508,-896.495,
1950,-893.374,-928.086,-928.413,-893.322,-927.987,-928.051,-893.331,-893.368,-898.551,-894.614,-893.901,-895.925,-908.254,-906.57,-910.856,-916.827,-921.729,-914.355,-902.854,-900.583,-905.122,-893.555,-925.434,-924.006,-927.152,-921.434,-907.818,-904.236,-911.578,-894.682,-893.848,-893.378,-899.528,-901.417,-898.185,-896.776,-895.549,-914.432,-918.049,-896.815,-927.233,-925.81,-893.606,-893.391,-904.903,-902.078,-903.793,-901.342,-914.183,-917.856,-897.014,-895.903,-895.203,-912.41,-909.189,-915.922,-918.857,-898.097,-898.764,-900.258,-906.815,-907.386,-911.048,-894.032,-893.891,-894.798,-922.198,-924.659,-921.162,-899.42,-897.424,
1975,-894.329,-928.731,-929.056,-894.278,-928.634,-928.697,-894.287,-894.323,-899.462,-895.559,-894.852,-896.858,-909.079,-907.41,-911.657,-917.575,-922.432,-915.125,-903.726,-901.475,-905.975,-894.509,-926.103,-924.689,-927.806,-922.14,-908.647,-905.097,-912.373,-895.626,-894.799,-894.334,-900.43,-902.302,-899.099,-897.702,-896.485,-915.201,-918.786,-897.74,-927.887,-926.477,-894.559,-894.346,-905.757,-902.958,-904.657,-902.228,-914.954,-918.594,-897.938,-896.836,-896.143,-913.197,-910.005,-916.678,-919.586,-899.011,-899.673,-901.154,-907.653,-908.218,-911.848,-894.982,-894.842,-895.741,-922.897,-925.336,-921.871,-900.323,-898.344,
2000,-895.276,-929.371,-929.693,-895.225,-929.275,-929.337,-895.234,-895.27,-900.364,-896.495,-895.795,-897.783,-909.896,-908.242,-912.451,-918.316,-923.129,-915.888,-904.591,-902.36,-906.819,-895.455,-926.767,-925.366,-928.454,-922.839,-909.468,-905.949,-913.161,-896.561,-895.742,-895.281,-901.324,-903.18,-900.004,-898.619,-897.414,-915.963,-919.516,-898.658,-928.535,-927.137,-895.504,-895.293,-906.604,-903.829,-905.513,-903.106,-915.719,-919.326,-898.854,-897.761,-897.074,-913.977,-910.814,-917.427,-920.309,-899.917,-900.573,-902.041,-908.483,-909.043,-912.64,-895.923,-895.785,-896.676,-923.59,-926.007,-922.573,-901.217,-899.257,
2025,-896.215,-930.005,-930.324,-896.164,-929.91,-929.971,-896.173,-896.209,-901.258,-897.423,-896.729,-898.7,-910.705,-909.067,-913.238,-919.05,-923.82,-916.644,-905.448,-903.237,-907.656,-896.392,-927.425,-926.036,-929.097,-923.533,-910.281,-906.794,-913.941,-897.489,-896.677,-896.219,-902.209,-904.049,-900.902,-899.529,-898.334,-916.719,-920.239,-899.567,-929.176,-927.792,-896.441,-896.231,-907.443,-904.693,-906.362,-903.976,-916.476,-920.051,-899.761,-898.678,-897.997,-914.751,-911.616,-918.169,-921.025,-900.816,-901.466,-902.921,-909.305,-909.86,-913.425,-896.856,-896.719,-897.602,-924.277,-926.672,-923.269,-902.104,-900.16,
2050,-897.145,-930.634,-930.95,-897.095,-930.539,-930.6,-897.104,-897.139,-902.144,-898.343,-897.655,-899.609,-911.508,-909.884,-914.018,-919.777,-924.504,-917.393,-906.297,-904.105,-908.486,-897.321,-928.077,-926.7,-929.733,-924.22,-911.087,-907.631,-914.714,-898.408,-897.603,-897.15,-903.087,-904.91,-901.791,-900.43,-899.245,-917.467,-920.956,-900.468,-929.812,-928.44,-897.369,-897.161,-908.274,-905.549,-907.203,-904.838,-917.227,-920.769,-900.66,-899.587,-898.912,-915.517,-912.41,-918.905,-921.735,-901.706,-902.35,-903.792,-910.12,-910.67,-914.203,-897.781,-897.645,-898.52,-924.957,-927.33,-923.958,-902.983,-901.056,
2075,-898.067,-931.257,-931.57,-898.017,-931.162,-931.223,-898.026,-898.061,-903.022,-899.255,-898.572,-900.509,-912.303,-910.693,-914.79,-920.498,-925.182,-918.135,-907.138,-904.966,-909.308,-898.241,-928.722,-927.359,-930.364,-924.9,-911.886,-908.461,-915.481,-899.319,-898.521,-898.071,-903.957,-905.764,-902.672,-901.323,-900.149,-918.208,-921.666,-901.36,-930.442,-929.082,-898.289,-898.083,-909.098,-906.397,-908.036,-905.692,-917.971,-921.481,-901.551,-900.488,-899.818,-916.276,-913.197,-919.633,-922.438,-902.587,-903.226,-904.655,-910.927,-911.472,-914.974,-898.697,-898.562,-899.43,-925.631,-927.983,-924.641,-903.853,-901.944,
2100,-898.981,-931.874,-932.184,-898.931,-931.78,-931.841,-898.94,-898.975,-903.893,-900.158,-899.481,-901.401,-913.09,-911.495,-915.555,-921.212,-925.854,-918.871,-907.972,-905.819,-910.122,-899.153,-929.362,-928.011,-930.989,-925.575,-912.678,-909.283,-916.24,-900.222,-899.431,-898.985,-904.819,-906.61,-903.545,-902.208,-901.044,-918.943,-922.369,-902.245,-931.067,-929.719,-899.201,-898.997,-909.914,-907.237,-908.862,-906.539,-918.707,-922.187,-902.434,-901.38,-900.717,-917.028,-913.976,-920.355,-923.135,-903.461,-904.095,-905.511,-911.727,-912.267,-915.737,-899.605,-899.472,-900.332,-926.299,-928.629,-925.318,-904.716,-902.823,
2125,-899.886,-932.485,-932.793,-899.837,-932.393,-932.452,-899.846,-899.88,-904.755,-901.053,-900.382,-902.286,-913.871,-912.29,-916.314,-921.92,-926.52,-919.599,-908.798,-906.664,-910.929,-900.057,-929.997,-928.657,-931.609,-926.243,-913.462,-910.097,-916.992,-901.116,-900.332,-899.891,-905.673,-907.448,-904.411,-903.085,-901.932,-919.671,-923.066,-903.122,-931.686,-930.35,-900.105,-899.902,-910.723,-908.07,-909.68,-907.378,-919.438,-922.885,-903.31,-902.265,-901.607,-917.773,-914.749,-921.07,-923.825,-904.328,-904.955,-906.359,-912.52,-913.055,-916.494,-900.505,-900.373,-901.226,-926.961,-929.27,-925.988,-905.571,-903.695,
2150,-900.784,-933.091,-933.396,-900.735,-932.999,-933.059,-900.744,-900.778,-905.609,-901.94,-901.275,-903.162,-914.644,-913.077,-917.065,-922.621,-927.18,-920.321,-909.617,-907.502,-911.729,-900.953,-930.625,-929.298,-932.222,-926.905,-914.239,-910.904,-917.738,-902.003,-901.226,-900.788,-906.519,-908.279,-905.268,-903.955,-902.811,-920.393,-923.757,-903.991,-932.299,-930.975,-901,-900.799,-911.525,-908.895,-910.491,-908.209,-920.161,-923.578,-904.177,-903.141,-902.489,-918.511,-915.514,-921.779,-924.509,-905.186,-905.808,-907.199,-913.305,-913.836,-917.244,-901.397,-901.266,-902.111,-927.616,-929.905,-926.653,-906.418,-904.559,
2175,-901.673,-933.691,-933.993,-901.625,-933.601,-933.659,-901.634,-901.667,-906.456,-902.819,-902.161,-904.03,-915.411,-913.858,-917.81,-923.316,-927.833,-921.037,-910.428,-908.332,-912.521,-901.841,-931.248,-929.932,-932.831,-927.561,-915.009,-911.704,-918.476,-902.882,-902.111,-901.677,-907.358,-909.102,-906.118,-904.816,-903.683,-921.107,-924.442,-904.852,-932.906,-931.595,-901.888,-901.689,-912.319,-909.712,-911.295,-909.033,-920.878,-924.264,-905.036,-904.01,-903.364,-919.243,-916.273,-922.482,-925.187,-906.036,-906.653,-908.032,-914.083,-914.609,-917.987,-902.281,-902.151,-902.989,-928.266,-930.534,-927.311,-907.258,-905.415,
2200,-902.555,-934.286,-934.586,-902.507,-934.196,-934.255,-902.515,-902.549,-907.295,-903.691,-903.038,-904.891,-916.17,-914.631,-918.548,-924.004,-928.481,-921.746,-911.232,-909.154,-913.306,-902.721,-931.865,-930.561,-933.434,-928.212,-915.772,-912.497,-919.208,-903.752,-902.989,-902.559,-908.189,-909.918,-906.96,-905.67,-904.546,-921.816,-925.12,-905.706,-933.508,-932.209,-902.767,-902.57,-913.106,-910.523,-912.091,-909.849,-921.588,-924.944,-905.888,-904.871,-904.23,-919.968,-917.025,-923.178,-925.858,-906.879,-907.49,-908.857,-914.855,-915.376,-918.724,-903.157,-903.028,-903.859,-928.91,-931.158,-927.964,-908.09,-906.264,
2225,-903.428,-934.876,-935.173,-903.381,-934.787,-934.845,-903.389,-903.423,-908.127,-904.554,-903.907,-905.744,-916.923,-915.397,-919.279,-924.686,-929.123,-922.448,-912.029,-909.97,-914.085,-903.593,-932.476,-931.184,-934.031,-928.856,-916.528,-913.282,-919.934,-904.615,-903.859,-903.432,-909.013,-910.726,-907.795,-906.516,-905.402,-922.518,-925.793,-906.551,-934.105,-932.817,-903.639,-903.444,-913.886,-911.326,-912.88,-910.658,-922.292,-925.618,-906.732,-905.724,-905.089,-920.687,-917.77,-923.867,-926.524,-907.715,-908.32,-909.675,-915.619,-916.136,-919.453,-904.026,-903.898,-904.721,-929.548,-931.776,-928.611,-908.915,-907.104,
2250,-904.294,-935.46,-935.754,-904.247,-935.372,-935.429,-904.256,-904.288,-908.951,-905.41,-904.769,-906.589,-917.668,-916.157,-920.004,-925.362,-929.759,-923.145,-912.818,-910.777,-914.856,-904.457,-933.082,-931.802,-934.623,-929.495,-917.277,-914.06,-920.652,-905.471,-904.721,-904.298,-909.829,-911.527,-908.622,-907.355,-906.251,-923.213,-926.459,-907.389,-934.696,-933.42,-904.503,-904.309,-914.659,-912.121,-913.662,-911.46,-922.99,-926.286,-907.569,-906.569,-905.94,-921.399,-918.508,-924.551,-927.184,-908.543,-909.143,-910.486,-916.376,-916.888,-920.176,-904.886,-904.759,-905.575,-930.18,-932.388,-929.251,-909.732,-907.938,
2275,-905.152,-936.04,-936.331,-905.106,-935.952,-936.009,-905.114,-905.146,-909.768,-906.258,-905.623,-907.427,-918.407,-916.909,-920.722,-926.032,-930.39,-923.834,-913.6,-911.578,-915.62,-905.314,-933.683,-932.414,-935.209,-930.128,-918.02,-914.831,-921.365,-906.318,-905.575,-905.156,-910.638,-912.321,-909.442,-908.185,-907.092,-923.903,-927.119,-908.22,-935.282,-934.017,-905.359,-905.167,-915.425,-912.91,-914.436,-912.254,-923.681,-926.947,-908.398,-907.407,-906.784,-922.104,-919.239,-925.228,-927.837,-909.363,-909.958,-911.289,-917.127,-917.634,-920.893,-905.739,-905.613,-906.422,-930.807,-932.995,-929.886,-910.542,-908.763,
2300,-906.003,-936.613,-936.902,-905.956,-936.527,-936.583,-905.965,-905.997,-910.577,-907.099,-906.469,-908.257,-919.14,-917.655,-921.433,-926.696,-931.014,-924.518,-914.376,-912.371,-916.377,-906.163,-934.278,-933.021,-935.791,-930.755,-918.755,-915.596,-922.07,-907.158,-906.422,-906.007,-911.44,-913.108,-910.254,-909.009,-907.925,-924.586,-927.773,-909.043,-935.863,-934.61,-906.208,-906.017,-916.184,-913.691,-915.204,-913.042,-924.366,-927.603,-909.219,-908.238,-907.62,-922.803,-919.964,-925.899,-928.485,-910.176,-910.765,-912.085,-917.871,-918.374,-921.603,-906.584,-906.46,-907.261,-931.428,-933.596,-930.516,-911.344,-909.582,
2325,-906.845,-937.182,-937.468,-906.799,-937.096,-937.152,-906.808,-906.84,-911.379,-907.932,-907.307,-909.08,-919.865,-918.394,-922.139,-927.354,-931.634,-925.195,-915.144,-913.157,-917.127,-907.004,-934.867,-933.622,-936.367,-931.376,-919.484,-916.353,-922.77,-907.991,-907.261,-906.849,-912.234,-913.887,-911.059,-909.825,-908.75,-925.262,-928.421,-909.859,-936.438,-935.196,-907.049,-906.86,-916.936,-914.466,-915.965,-913.822,-925.045,-928.253,-910.034,-909.06,-908.448,-923.496,-920.682,-926.564,-929.127,-910.982,-911.566,-912.873,-918.608,-919.106,-922.306,-907.422,-907.298,-908.093,-932.043,-934.192,-931.139,-912.14,-910.393,
2350,-907.68,-937.746,-938.029,-907.635,-937.66,-937.715,-907.643,-907.675,-912.174,-908.758,-908.138,-909.895,-920.584,-919.126,-922.837,-928.006,-932.247,-925.867,-915.905,-913.936,-917.871,-907.838,-935.452,-934.217,-936.938,-931.992,-920.207,-917.104,-923.463,-908.816,-908.092,-907.684,-913.022,-914.66,-911.857,-910.634,-909.569,-925.933,-929.063,-910.667,-937.009,-935.778,-907.882,-907.695,-917.681,-915.233,-916.719,-914.595,-925.718,-928.896,-910.84,-909.876,-909.269,-924.183,-921.394,-927.223,-929.763,-911.78,-912.359,-913.655,-919.338,-919.832,-923.004,-908.252,-908.13,-908.917,-932.653,-934.782,-931.757,-912.928,-911.196,
2375,-908.508,-938.304,-938.585,-908.463,-938.22,-938.274,-908.471,-908.503,-912.962,-909.576,-908.962,-910.703,-921.297,-919.852,-923.53,-928.652,-932.855,-926.532,-916.66,-914.708,-918.608,-908.665,-936.031,-934.807,-937.504,-932.602,-920.923,-917.847,-924.15,-909.634,-908.916,-908.512,-913.802,-915.425,-912.647,-911.435,-910.38,-926.598,-929.7,-911.469,-937.574,-936.354,-908.708,-908.523,-918.42,-915.993,-917.466,-915.361,-926.384,-929.534,-911.64,-910.684,-910.083,-924.863,-922.099,-927.876,-930.393,-912.571,-913.145,-914.429,-920.062,-920.551,-923.695,-909.075,-908.953,-909.734,-933.257,-935.367,-932.369,-913.709,-911.993,
2400,-909.329,-938.858,-939.136,-909.284,-938.774,-938.828,-909.292,-909.323,-913.743,-910.387,-909.778,-911.504,-922.003,-920.571,-924.216,-929.292,-933.457,-927.191,-917.407,-915.473,-919.338,-909.483,-936.605,-935.392,-938.064,-933.207,-921.633,-918.584,-924.83,-910.444,-909.733,-909.332,-914.575,-916.184,-913.431,-912.23,-911.183,-927.256,-930.331,-912.263,-938.134,-936.925,-909.526,-909.343,-919.152,-916.747,-918.207,-916.12,-927.045,-930.167,-912.433,-911.485,-910.889,-925.537,-922.798,-928.523,-931.017,-913.356,-913.924,-915.197,-920.779,-921.264,-924.379,-909.89,-909.77,-910.543,-933.856,-935.947,-932.976,-914.483,-912.782,
2425,-910.142,-939.406,-939.682,-910.097,-939.323,-939.377,-910.105,-910.136,-914.517,-911.19,-910.587,-912.298,-922.703,-921.284,-924.896,-929.927,-934.054,-927.845,-918.148,-916.232,-920.062,-910.295,-937.174,-935.972,-938.62,-933.806,-922.336,-919.315,-925.505,-911.247,-910.542,-910.145,-915.341,-916.936,-914.207,-913.017,-911.98,-927.909,-930.956,-913.049,-938.689,-937.491,-910.338,-910.156,-919.877,-917.494,-918.94,-916.873,-927.699,-930.793,-913.218,-912.279,-911.688,-926.205,-923.491,-929.165,-931.636,-914.133,-914.696,-915.958,-921.49,-921.971,-925.058,-910.698,-910.579,-911.345,-934.45,-936.522,-933.578,-915.25,-913.565,
2450,-910.947,-939.95,-940.223,-910.903,-939.867,-939.92,-910.911,-910.942,-915.283,-911.987,-911.389,-913.084,-923.397,-921.99,-925.57,-930.555,-934.646,-928.492,-918.883,-916.983,-920.779,-911.099,-937.737,-936.546,-939.17,-934.4,-923.032,-920.039,-926.173,-912.043,-911.344,-910.951,-916.101,-917.681,-914.977,-913.797,-912.769,-928.556,-931.575,-913.829,-939.239,-938.051,-911.142,-910.961,-920.596,-918.234,-919.668,-917.618,-928.348,-931.414,-913.996,-913.066,-912.48,-926.868,-924.178,-929.8,-932.25,-914.903,-915.461,-916.712,-922.194,-922.671,-925.73,-911.499,-911.381,-912.14,-935.038,-937.091,-934.173,-916.01,-914.34,
2475,-911.746,-940.488,-940.759,-911.702,-940.407,-940.459,-911.71,-911.74,-916.043,-912.776,-912.184,-913.864,-924.084,-922.69,-926.238,-931.178,-935.232,-929.134,-919.61,-917.728,-921.49,-911.897,-938.296,-937.116,-939.716,-934.988,-923.723,-920.756,-926.836,-912.832,-912.139,-911.749,-916.853,-918.42,-915.739,-914.57,-913.551,-929.197,-932.189,-914.602,-939.784,-938.607,-911.938,-911.76,-921.308,-918.968,-920.388,-918.357,-928.991,-932.03,-914.768,-913.845,-913.265,-927.524,-924.858,-930.43,-932.858,-915.666,-916.22,-917.459,-922.892,-923.365,-926.397,-912.292,-912.175,-912.928,-935.621,-937.656,-934.764,-916.763,-915.108,
2500,-912.537,-941.022,-941.291,-912.494,-940.941,-940.993,-912.502,-912.532,-916.796,-913.558,-912.971,-914.636,-924.765,-923.383,-926.899,-931.796,-935.813,-929.769,-920.331,-918.466,-922.194,-912.687,-938.849,-937.68,-940.257,-935.572,-924.407,-921.467,-927.492,-913.613,-912.927,-912.541,-917.599,-919.151,-916.495,-915.336,-914.327,-929.832,-932.798,-915.368,-940.324,-939.158,-912.728,-912.551,-922.014,-919.694,-921.102,-919.09,-929.628,-932.639,-915.532,-914.618,-914.043,-928.174,-925.532,-931.054,-933.46,-916.422,-916.971,-918.199,-923.584,-924.052,-927.057,-913.079,-912.963,-913.709,-936.198,-938.215,-935.349,-917.51,-915.869,
2525,-913.321,-941.551,-941.817,-913.279,-941.471,-941.523,-913.286,-913.316,-917.542,-914.333,-913.752,-915.402,-925.44,-924.07,-927.555,-932.408,-936.389,-930.399,-921.046,-919.197,-922.892,-913.469,-939.398,-938.239,-940.793,-936.15,-925.085,-922.171,-928.142,-914.388,-913.708,-913.325,-918.338,-919.877,-917.244,-916.095,-915.095,-930.462,-933.4,-916.127,-940.859,-939.704,-913.511,-913.335,-922.714,-920.415,-921.81,-919.815,-930.259,-933.244,-916.289,-915.384,-914.813,-928.818,-926.2,-931.673,-934.057,-917.172,-917.716,-918.933,-924.27,-924.733,-927.711,-913.858,-913.743,-914.483,-936.77,-938.769,-935.929,-918.25,-916.624,
2550,-914.099,-942.075,-942.339,-914.056,-941.996,-942.047,-914.064,-914.093,-918.282,-915.101,-914.525,-916.16,-926.109,-924.752,-928.205,-933.014,-936.96,-931.024,-921.754,-919.922,-923.584,-914.245,-939.941,-938.793,-941.324,-936.722,-925.757,-922.869,-928.787,-915.156,-914.482,-914.102,-919.07,-920.595,-917.986,-916.848,-915.856,-931.086,-933.998,-916.879,-941.39,-940.244,-914.286,-914.112,-923.407,-921.129,-922.512,-920.535,-930.885,-933.843,-917.04,-916.142,-915.577,-929.457,-926.862,-932.286,-934.648,-917.915,-918.454,-919.66,-924.949,-925.409,-928.36,-914.631,-914.517,-915.249,-937.338,-939.318,-936.504,-918.983,-917.372,
2575,-914.869,-942.595,-942.856,-914.827,-942.516,-942.567,-914.835,-914.864,-919.015,-915.863,-915.291,-916.912,-926.772,-925.427,-928.849,-933.615,-937.525,-931.643,-922.456,-920.64,-924.269,-915.014,-940.48,-939.342,-941.85,-937.29,-926.423,-923.561,-929.426,-915.916,-915.249,-914.872,-919.796,-921.307,-918.722,-917.594,-916.611,-931.704,-934.59,-917.625,-941.915,-940.78,-915.055,-914.882,-924.094,-921.836,-923.207,-921.247,-931.505,-934.436,-917.784,-916.894,-916.334,-930.09,-927.518,-932.893,-935.235,-918.651,-919.185,-920.38,-925.622,-926.078,-929.002,-915.396,-915.283,-916.009,-937.9,-939.863,-937.074,-919.71,-918.113,
2600,-915.632,-943.11,-943.369,-915.591,-943.032,-943.082,-915.598,-915.627,-919.741,-916.617,-916.051,-917.657,-927.428,-926.096,-929.487,-934.211,-938.086,-932.256,-923.152,-921.352,-924.948,-915.776,-941.014,-939.886,-942.372,-937.852,-927.083,-924.247,-930.059,-916.67,-916.009,-915.636,-920.516,-922.013,-919.451,-918.333,-917.359,-932.316,-935.177,-918.363,-942.436,-941.312,-915.816,-915.646,-924.775,-922.537,-923.895,-921.954,-932.12,-935.024,-918.522,-917.64,-917.085,-930.717,-928.168,-933.495,-935.816,-919.381,-919.91,-921.094,-926.289,-926.741,-929.639,-916.155,-916.043,-916.763,-938.457,-940.402,-937.638,-920.43,-918.847,
2625,-916.389,-943.62,-943.877,-916.348,-943.543,-943.593,-916.355,-916.384,-920.461,-917.365,-916.804,-918.396,-928.079,-926.758,-930.12,-934.801,-938.641,-932.864,-923.841,-922.057,-925.622,-916.532,-941.543,-940.425,-942.889,-938.41,-927.738,-924.926,-930.686,-917.418,-916.762,-916.392,-921.229,-922.713,-920.173,-919.065,-918.1,-932.924,-935.758,-919.095,-942.953,-941.838,-916.571,-916.402,-925.45,-923.232,-924.578,-922.654,-932.728,-935.607,-919.252,-918.378,-917.828,-931.338,-928.813,-934.092,-936.391,-920.104,-920.628,-921.802,-926.95,-927.398,-930.27,-916.907,-916.796,-917.509,-939.009,-940.937,-938.197,-921.143,-919.575,
2650,-917.138,-944.126,-944.38,-917.098,-944.049,-944.099,-917.105,-917.133,-921.174,-918.106,-917.55,-919.128,-928.725,-927.415,-930.747,-935.386,-939.191,-933.466,-924.524,-922.756,-926.289,-917.28,-942.067,-940.959,-943.401,-938.962,-928.386,-925.6,-931.308,-918.158,-917.508,-917.142,-921.935,-923.406,-920.889,-919.791,-918.834,-933.525,-936.335,-919.821,-943.464,-942.36,-917.319,-917.152,-926.118,-923.92,-925.255,-923.348,-933.332,-936.185,-919.976,-919.11,-918.565,-931.954,-929.451,-934.683,-936.962,-920.82,-921.34,-922.504,-927.606,-928.049,-930.896,-917.652,-917.542,-918.249,-939.556,-941.466,-938.752,-921.851,-920.296,
2675,-917.881,-944.627,-944.879,-917.841,-944.551,-944.6,-917.848,-917.877,-921.881,-918.84,-918.289,-919.853,-929.364,-928.066,-931.368,-935.965,-939.737,-934.063,-925.201,-923.449,-926.95,-918.022,-942.587,-941.489,-943.908,-939.51,-929.028,-926.267,-931.924,-918.892,-918.248,-917.885,-922.635,-924.093,-921.599,-920.51,-919.562,-934.122,-936.906,-920.54,-943.971,-942.877,-918.061,-917.894,-926.781,-924.603,-925.925,-924.035,-933.93,-936.757,-920.694,-919.836,-919.295,-932.565,-930.084,-935.269,-937.527,-921.53,-922.046,-923.199,-928.255,-928.694,-931.516,-918.39,-918.281,-918.982,-940.098,-941.991,-939.301,-922.552,-921.011,
2700,-918.618,-945.123,-945.373,-918.578,-945.048,-945.097,-918.585,-918.613,-922.582,-919.568,-919.022,-920.572,-929.997,-928.712,-931.984,-936.539,-940.277,-934.654,-925.872,-924.136,-927.605,-918.757,-943.102,-942.014,-944.411,-940.052,-929.665,-926.928,-932.535,-919.619,-918.981,-918.621,-923.329,-924.774,-922.302,-921.223,-920.284,-934.712,-937.472,-921.253,-944.474,-943.389,-918.796,-918.631,-927.438,-925.279,-926.589,-924.716,-934.523,-937.324,-921.405,-920.555,-920.019,-933.169,-930.711,-935.849,-938.088,-922.234,-922.745,-923.887,-928.899,-929.334,-932.13,-919.122,-919.014,-919.708,-940.635,-942.512,-939.846,-923.246,-921.719,
2725,-919.348,-945.616,-945.863,-919.308,-945.541,-945.589,-919.315,-919.343,-923.276,-920.289,-919.748,-921.284,-930.625,-929.351,-932.594,-937.109,-940.813,-935.24,-926.537,-924.816,-928.255,-919.485,-943.612,-942.534,-944.91,-940.59,-930.296,-927.584,-933.14,-920.34,-919.708,-919.351,-924.017,-925.448,-922.999,-921.929,-920.998,-935.298,-938.032,-921.959,-944.972,-943.897,-919.524,-919.36,-928.089,-925.949,-927.248,-925.392,-935.11,-937.887,-922.11,-921.267,-920.736,-933.769,-931.333,-936.425,-938.643,-922.931,-923.438,-924.57,-929.536,-929.968,-932.739,-919.847,-919.74,-920.428,-941.168,-943.027,-940.385,-923.935,-922.421,
2750,-920.071,-946.103,-946.349,-920.032,-946.03,-946.077,-920.039,-920.066,-923.964,-921.004,-920.468,-921.99,-931.248,-929.985,-933.198,-937.673,-941.344,-935.821,-927.195,-925.49,-928.898,-920.207,-944.118,-943.049,-945.404,-941.123,-930.921,-928.233,-933.74,-921.055,-920.428,-920.074,-924.698,-926.117,-923.689,-922.63,-921.707,-935.878,-938.588,-922.659,-945.465,-944.4,-920.245,-920.083,-928.734,-926.613,-927.9,-926.061,-935.692,-938.444,-922.809,-921.973,-921.447,-934.363,-931.949,-936.995,-939.193,-923.623,-924.124,-925.246,-930.168,-930.596,-933.342,-920.566,-920.46,-921.142,-941.695,-943.538,-940.92,-924.617,-923.117,
2775,-920.788,-946.587,-946.83,-920.749,-946.514,-946.561,-920.756,-920.783,-924.646,-921.713,-921.181,-922.689,-931.864,-930.613,-933.797,-938.232,-941.87,-936.397,-927.848,-926.159,-929.536,-920.923,-944.619,-943.56,-945.894,-941.651,-931.54,-928.877,-934.334,-921.763,-921.141,-920.791,-925.373,-926.78,-924.373,-923.323,-922.409,-936.453,-939.139,-923.352,-945.955,-944.899,-920.961,-920.8,-929.373,-927.272,-928.547,-926.724,-936.269,-938.996,-923.501,-922.673,-922.152,-934.952,-932.559,-937.56,-939.739,-924.308,-924.805,-925.917,-930.795,-931.219,-933.94,-921.278,-921.173,-921.849,-942.218,-944.045,-941.45,-925.293,-923.807,
2800,-921.498,-947.066,-947.307,-921.459,-946.993,-947.04,-921.466,-921.493,-925.322,-922.415,-921.888,-923.383,-932.475,-931.235,-934.391,-938.786,-942.391,-936.967,-928.496,-926.821,-930.168,-921.632,-945.116,-944.066,-946.379,-942.174,-932.154,-929.515,-934.923,-922.464,-921.848,-921.501,-926.043,-927.436,-925.052,-924.011,-923.105,-937.023,-939.685,-924.04,-946.439,-945.393,-921.669,-921.51,-930.006,-927.924,-929.188,-927.381,-936.84,-939.543,-924.187,-923.366,-922.85,-935.535,-933.164,-938.12,-940.279,-924.986,-925.479,-926.581,-931.415,-931.835,-934.533,-921.984,-921.88,-922.55,-942.737,-944.547,-941.975,-925.963,-924.49,
2825,-922.202,-947.541,-947.779,-922.164,-947.469,-947.515,-922.171,-922.197,-925.992,-923.11,-922.588,-924.07,-933.081,-931.852,-934.98,-939.335,-942.908,-937.532,-929.137,-927.477,-930.794,-922.335,-945.608,-944.568,-946.86,-942.693,-932.763,-930.147,-935.507,-923.159,-922.549,-922.205,-926.706,-928.087,-925.724,-924.693,-923.794,-937.588,-940.226,-924.721,-946.92,-945.883,-922.372,-922.214,-930.634,-928.57,-929.823,-928.032,-937.407,-940.085,-924.867,-924.053,-923.542,-936.113,-933.763,-938.675,-940.815,-925.659,-926.147,-927.24,-932.03,-932.447,-935.12,-922.684,-922.581,-923.245,-943.25,-945.044,-942.495,-926.627,-925.167,
2850,-922.9,-948.011,-948.248,-922.862,-947.94,-947.986,-922.868,-922.895,-926.655,-923.8,-923.282,-924.751,-933.681,-932.463,-935.563,-939.879,-943.42,-938.093,-929.772,-928.128,-931.415,-923.031,-946.096,-945.065,-947.337,-943.207,-933.366,-930.774,-936.085,-923.849,-923.244,-922.903,-927.363,-928.732,-926.39,-925.368,-924.478,-938.148,-940.762,-925.396,-947.396,-946.368,-923.068,-922.912,-931.256,-929.211,-930.452,-928.678,-937.968,-940.622,-925.541,-924.735,-924.227,-936.686,-934.357,-939.225,-941.346,-926.326,-926.81,-927.892,-932.64,-933.053,-935.702,-923.377,-923.275,-923.933,-943.759,-945.537,-943.011,-927.285,-925.838,
2875,-923.591,-948.477,-948.712,-923.553,-948.407,-948.452,-923.56,-923.586,-927.313,-924.483,-923.97,-925.426,-934.276,-933.069,-936.141,-940.418,-943.928,-938.648,-930.402,-928.772,-932.03,-923.722,-946.579,-945.558,-947.809,-943.716,-933.963,-931.394,-936.658,-924.531,-923.932,-923.594,-928.015,-929.371,-927.05,-926.037,-925.155,-938.703,-941.293,-926.065,-947.867,-946.849,-923.758,-923.603,-931.873,-929.846,-931.076,-929.317,-938.524,-941.155,-926.208,-925.41,-924.907,-937.254,-934.946,-939.77,-941.872,-926.986,-927.466,-928.539,-933.244,-933.653,-936.278,-924.064,-923.963,-924.615,-944.264,-946.025,-943.522,-927.937,-926.503,
2900,-924.276,-948.939,-949.172,-924.239,-948.869,-948.915,-924.246,-924.272,-927.965,-925.16,-924.652,-926.094,-934.865,-933.669,-936.713,-940.953,-944.43,-939.198,-931.026,-929.411,-932.639,-924.406,-947.058,-946.046,-948.277,-944.221,-934.556,-932.01,-937.226,-925.208,-924.614,-924.279,-928.66,-930.005,-927.704,-926.7,-925.826,-939.253,-941.82,-926.728,-948.335,-947.326,-924.441,-924.288,-932.484,-930.475,-931.694,-929.951,-939.076,-941.683,-926.87,-926.078,-925.58,-937.817,-935.53,-940.31,-942.393,-927.641,-928.117,-929.18,-933.843,-934.248,-936.85,-924.745,-924.645,-925.291,-944.763,-946.509,-944.029,-928.583,-927.162,
2925,-924.955,-949.397,-949.628,-924.918,-949.328,-949.373,-924.925,-924.951,-928.611,-925.832,-925.328,-926.757,-935.45,-934.264,-937.281,-941.482,-944.929,-939.743,-931.645,-930.044,-933.244,-925.083,-947.533,-946.53,-948.741,-944.721,-935.143,-932.619,-937.789,-925.879,-925.29,-924.958,-929.3,-930.632,-928.353,-927.358,-926.491,-939.797,-942.342,-927.385,-948.798,-947.798,-925.119,-924.967,-933.089,-931.098,-932.307,-930.579,-939.622,-942.206,-927.526,-926.741,-926.248,-938.375,-936.108,-940.846,-942.91,-928.29,-928.761,-929.815,-934.436,-934.838,-937.416,-925.42,-925.321,-925.961,-945.259,-946.989,-944.531,-929.224,-927.816,
2950,-925.628,-949.851,-950.079,-925.592,-949.782,-949.827,-925.598,-925.624,-929.251,-926.497,-925.997,-927.414,-936.028,-934.853,-937.843,-942.007,-945.423,-940.284,-932.258,-930.671,-933.842,-925.755,-948.004,-947.009,-949.2,-945.217,-935.724,-933.224,-938.347,-926.544,-925.96,-925.631,-929.934,-931.254,-928.995,-928.009,-927.151,-940.337,-942.859,-928.036,-949.258,-948.266,-925.791,-925.64,-933.689,-931.716,-932.914,-931.202,-940.164,-942.724,-928.176,-927.398,-926.909,-938.927,-936.681,-941.376,-943.422,-928.933,-929.4,-930.444,-935.024,-935.422,-937.977,-926.089,-925.99,-926.625,-945.75,-947.464,-945.028,-929.858,-928.463,
2975,-926.295,-950.301,-950.527,-926.259,-950.233,-950.277,-926.265,-926.291,-929.886,-927.156,-926.661,-928.065,-936.602,-935.438,-938.401,-942.527,-945.912,-940.819,-932.866,-931.293,-934.436,-926.421,-948.47,-947.485,-949.656,-945.708,-936.301,-933.823,-938.9,-927.202,-926.624,-926.298,-930.562,-931.871,-929.632,-928.655,-927.804,-940.872,-943.371,-928.682,-949.713,-948.73,-926.456,-926.307,-934.284,-932.329,-933.515,-931.819,-940.7,-943.238,-928.82,-928.049,-927.564,-939.475,-937.249,-941.902,-943.929,-929.571,-930.033,-931.068,-935.607,-936.001,-938.534,-926.752,-926.654,-927.283,-946.236,-947.936,-945.521,-930.487,-929.104,
3000,-926.956,-950.747,-950.971,-926.92,-950.679,-950.723,-926.927,-926.952,-930.514,-927.809,-927.319,-928.71,-937.171,-936.017,-938.953,-943.042,-946.397,-941.35,-933.468,-931.909,-935.024,-927.081,-948.932,-947.956,-950.108,-946.195,-936.872,-934.416,-939.448,-927.855,-927.282,-926.959,-931.185,-932.482,-930.263,-929.295,-928.451,-941.403,-943.879,-929.321,-950.164,-949.19,-927.116,-926.968,-934.873,-932.936,-934.112,-932.43,-941.232,-943.747,-929.458,-928.695,-928.214,-940.018,-937.811,-942.423,-944.432,-930.202,-930.661,-931.686,-936.184,-936.575,-939.085,-927.408,-927.312,-927.935,-946.719,-948.403,-946.01,-931.111,-929.74,
3025,-927.611,-951.188,-951.41,-927.575,-951.121,-951.165,-927.582,-927.607,-931.138,-928.456,-927.97,-929.349,-937.734,-936.591,-939.501,-943.553,-946.878,-941.876,-934.064,-932.52,-935.606,-927.735,-949.39,-948.422,-950.555,-946.678,-937.438,-935.004,-939.991,-928.502,-927.934,-927.614,-931.802,-933.087,-930.888,-929.929,-929.093,-941.928,-944.382,-929.955,-950.611,-949.646,-927.769,-927.622,-935.457,-933.537,-934.703,-933.036,-941.759,-944.251,-930.091,-929.334,-928.858,-940.556,-938.369,-942.94,-944.93,-930.828,-931.282,-932.299,-936.757,-937.144,-939.631,-928.059,-927.963,-928.581,-947.196,-948.865,-946.494,-931.729,-930.37,
3050,-928.26,-951.626,-951.846,-928.225,-951.56,-951.602,-928.231,-928.256,-931.755,-929.098,-928.616,-929.983,-938.293,-937.159,-940.043,-944.06,-947.354,-942.397,-934.656,-933.125,-936.184,-928.383,-949.844,-948.885,-950.998,-947.156,-937.999,-935.587,-940.529,-929.143,-928.58,-928.263,-932.414,-933.688,-931.508,-930.557,-929.729,-942.449,-944.881,-930.583,-951.053,-950.097,-928.417,-928.271,-936.036,-934.133,-935.288,-933.637,-942.282,-944.751,-930.718,-929.968,-929.496,-941.089,-938.922,-943.451,-945.424,-931.448,-931.899,-932.906,-937.324,-937.708,-940.173,-928.705,-928.609,-929.222,-947.67,-949.324,-946.974,-932.341,-930.995,
3075,-928.903,-952.06,-952.278,-928.868,-951.994,-952.037,-928.875,-928.899,-932.367,-929.734,-929.257,-930.611,-938.846,-937.723,-940.581,-944.561,-947.827,-942.914,-935.242,-933.725,-936.756,-929.025,-950.294,-949.343,-951.438,-947.63,-938.555,-936.165,-941.063,-929.779,-929.221,-928.906,-933.02,-934.282,-932.122,-931.18,-930.359,-942.965,-945.375,-931.206,-951.492,-950.545,-929.059,-928.915,-936.61,-934.724,-935.869,-934.232,-942.799,-945.247,-931.339,-930.596,-930.128,-941.617,-939.47,-943.958,-945.914,-932.063,-932.509,-933.508,-937.886,-938.266,-940.709,-929.344,-929.25,-929.856,-948.139,-949.778,-947.449,-932.948,-931.613,
3100,-929.541,-952.49,-952.706,-929.506,-952.425,-952.467,-929.513,-929.537,-932.974,-930.364,-929.891,-931.233,-939.394,-938.281,-941.114,-945.058,-948.294,-943.426,-935.822,-934.319,-937.323,-929.661,-950.74,-949.798,-951.873,-948.1,-939.106,-936.737,-941.591,-930.408,-929.855,-929.544,-933.621,-934.872,-932.731,-931.797,-930.983,-943.477,-945.865,-931.823,-951.927,-950.988,-929.695,-929.552,-937.178,-935.309,-936.444,-934.822,-943.312,-945.738,-931.955,-931.218,-930.755,-942.141,-940.012,-944.461,-946.399,-932.672,-933.115,-934.104,-938.443,-938.82,-941.241,-929.978,-929.884,-930.485,-948.604,-950.229,-947.921,-933.549,-932.227,
3125,-930.173,-952.916,-953.13,-930.139,-952.851,-952.893,-930.145,-930.169,-933.575,-930.988,-930.52,-931.85,-939.938,-938.835,-941.642,-945.551,-948.758,-943.933,-936.398,-934.908,-937.885,-930.292,-951.181,-950.248,-952.305,-948.565,-939.652,-937.305,-942.115,-931.032,-930.485,-930.176,-934.216,-935.456,-933.334,-932.409,-931.602,-943.984,-946.351,-932.434,-952.359,-951.428,-930.325,-930.184,-937.742,-935.889,-937.014,-935.406,-943.821,-946.225,-932.565,-931.835,-931.375,-942.66,-940.55,-944.959,-946.88,-933.276,-933.714,-934.695,-938.995,-939.369,-941.768,-930.605,-930.513,-931.109,-949.065,-950.675,-948.388,-934.145,-932.835,
3150,-930.799,-953.338,-953.55,-930.765,-953.274,-953.315,-930.771,-930.795,-934.17,-931.607,-931.143,-932.461,-940.477,-939.383,-942.165,-946.039,-949.218,-944.436,-936.968,-935.492,-938.442,-930.917,-951.619,-950.694,-952.733,-949.026,-940.194,-937.867,-942.634,-931.651,-931.108,-930.802,-934.806,-936.034,-933.932,-933.015,-932.216,-944.486,-946.832,-933.04,-952.786,-951.863,-930.95,-930.81,-938.3,-936.464,-937.579,-935.986,-944.324,-946.707,-933.17,-932.446,-931.991,-943.174,-941.084,-945.453,-947.356,-933.875,-934.309,-935.281,-939.542,-939.913,-942.29,-931.228,-931.136,-931.727,-949.522,-951.117,-948.85,-934.735,-933.437,
3175,-931.42,-953.757,-953.967,-931.386,-953.693,-953.734,-931.392,-931.415,-934.761,-932.221,-931.76,-933.066,-941.01,-939.927,-942.684,-946.523,-949.673,-944.934,-937.534,-936.07,-938.994,-931.537,-952.053,-951.136,-953.157,-949.483,-940.73,-938.424,-943.149,-932.264,-931.726,-931.423,-935.391,-936.608,-934.525,-933.615,-932.824,-944.984,-947.309,-933.64,-953.209,-952.295,-931.569,-931.43,-938.853,-937.034,-938.138,-936.56,-944.824,-947.185,-933.769,-933.052,-932.601,-943.684,-941.612,-945.942,-947.828,-934.468,-934.898,-935.861,-940.084,-940.451,-942.808,-931.845,-931.754,-932.339,-949.975,-951.556,-949.309,-935.321,-934.034,
3200,-932.035,-954.171,-954.38,-932.001,-954.108,-954.149,-932.007,-932.031,-935.346,-932.828,-932.372,-933.667,-941.539,-940.466,-943.198,-947.003,-950.124,-945.428,-938.094,-936.644,-939.542,-932.151,-952.483,-951.574,-953.577,-949.937,-941.262,-938.976,-943.659,-932.871,-932.338,-932.037,-935.97,-937.177,-935.112,-934.211,-933.426,-945.477,-947.781,-934.236,-953.629,-952.723,-932.183,-932.045,-939.402,-937.599,-938.693,-937.129,-945.319,-947.658,-934.363,-933.652,-933.205,-944.189,-942.136,-946.427,-948.296,-935.055,-935.482,-936.436,-940.622,-940.985,-943.321,-932.456,-932.366,-932.946,-950.423,-951.99,-949.764,-935.901,-934.625,
3225,-932.644,-954.582,-954.789,-932.611,-954.52,-954.56,-932.617,-932.64,-935.926,-933.431,-932.979,-934.262,-942.064,-941,-943.708,-947.478,-950.572,-945.918,-938.649,-937.212,-940.084,-932.759,-952.909,-952.009,-953.993,-950.385,-941.788,-939.524,-944.164,-933.473,-932.945,-932.647,-936.544,-937.74,-935.694,-934.801,-934.023,-945.966,-948.25,-934.825,-954.045,-953.147,-932.791,-932.655,-939.945,-938.158,-939.243,-937.693,-945.809,-948.128,-934.952,-934.247,-933.804,-944.689,-942.655,-946.907,-948.76,-935.638,-936.06,-937.006,-941.154,-941.515,-943.829,-933.061,-932.972,-933.547,-950.868,-952.421,-950.214,-936.476,-935.212,
3250,-933.248,-954.989,-955.194,-933.215,-954.928,-954.968,-933.221,-933.244,-936.5,-934.028,-933.58,-934.851,-942.583,-941.529,-944.212,-947.949,-951.015,-946.403,-939.199,-937.775,-940.621,-933.362,-953.331,-952.439,-954.406,-950.83,-942.31,-940.066,-944.665,-934.07,-933.546,-933.251,-937.113,-938.298,-936.27,-935.385,-934.615,-946.451,-948.714,-935.41,-954.457,-953.567,-933.394,-933.259,-940.484,-938.713,-939.788,-938.251,-946.295,-948.593,-935.535,-934.837,-934.398,-945.185,-943.169,-947.383,-949.219,-936.215,-936.634,-937.571,-941.682,-942.039,-944.333,-933.662,-933.573,-934.143,-951.309,-952.847,-950.661,-937.045,-935.793,
3275,-933.847,-955.393,-955.596,-933.814,-955.332,-955.371,-933.82,-933.843,-937.07,-934.619,-934.175,-935.435,-943.098,-942.053,-944.713,-948.416,-951.454,-946.883,-939.744,-938.333,-941.154,-933.96,-953.75,-952.866,-954.814,-951.271,-942.828,-940.603,-945.161,-934.661,-934.142,-933.85,-937.677,-938.852,-936.842,-935.965,-935.201,-946.931,-949.174,-935.989,-954.865,-953.983,-933.991,-933.857,-941.017,-939.262,-940.328,-938.805,-946.777,-949.054,-936.113,-935.421,-934.986,-945.677,-943.678,-947.855,-949.674,-936.787,-937.202,-938.131,-942.205,-942.559,-944.832,-934.257,-934.169,-934.733,-951.745,-953.27,-951.103,-937.61,-936.368,
3300,-934.44,-955.793,-955.994,-934.408,-955.733,-955.772,-934.414,-934.436,-937.634,-935.206,-934.766,-936.014,-943.609,-942.573,-945.209,-948.879,-951.89,-947.36,-940.285,-938.886,-941.681,-934.552,-954.165,-953.288,-955.22,-951.708,-943.34,-941.136,-945.653,-935.247,-934.733,-934.443,-938.236,-939.4,-937.408,-936.539,-935.782,-947.407,-949.629,-936.563,-955.27,-954.396,-934.583,-934.45,-941.546,-939.807,-940.863,-939.354,-947.254,-949.511,-936.686,-936.001,-935.569,-946.164,-944.184,-948.323,-950.126,-937.354,-937.765,-938.686,-942.723,-943.074,-945.327,-934.846,-934.759,-935.319,-952.178,-953.689,-951.542,-938.169,-936.939,
3325,-935.028,-956.19,-956.389,-934.996,-956.13,-956.168,-935.002,-935.024,-938.193,-935.787,-935.351,-936.588,-944.114,-943.088,-945.7,-949.337,-952.321,-947.832,-940.82,-939.434,-942.204,-935.139,-954.576,-953.707,-955.621,-952.141,-943.849,-941.664,-946.14,-935.828,-935.318,-935.031,-938.79,-939.943,-937.97,-937.108,-936.358,-947.878,-950.081,-937.132,-955.671,-954.805,-935.17,-935.038,-942.071,-940.347,-941.393,-939.898,-947.727,-949.964,-937.254,-936.574,-936.147,-946.647,-944.684,-948.786,-950.573,-937.916,-938.323,-939.236,-943.237,-943.585,-945.817,-935.43,-935.344,-935.899,-952.607,-954.105,-951.976,-938.724,-937.505,
3350,-935.611,-956.582,-956.78,-935.579,-956.523,-956.561,-935.585,-935.607,-938.748,-936.363,-935.93,-937.157,-944.615,-943.598,-946.187,-949.791,-952.749,-948.3,-941.351,-939.977,-942.723,-935.721,-954.983,-954.122,-956.019,-952.571,-944.352,-942.187,-946.623,-936.403,-935.898,-935.613,-939.339,-940.482,-938.526,-937.672,-936.929,-948.346,-950.529,-937.696,-956.069,-955.21,-935.751,-935.621,-942.59,-940.882,-941.919,-940.437,-948.196,-950.412,-937.816,-937.143,-936.72,-947.125,-945.18,-949.245,-951.016,-938.472,-938.876,-939.781,-943.746,-944.091,-946.303,-936.009,-935.924,-936.474,-953.032,-954.516,-952.407,-939.273,-938.065,
3375,-936.188,-956.972,-957.168,-936.157,-956.913,-956.951,-936.162,-936.184,-939.297,-936.933,-936.505,-937.72,-945.112,-944.104,-946.669,-950.242,-953.172,-948.763,-941.877,-940.515,-943.236,-936.297,-955.387,-954.534,-956.414,-952.996,-944.851,-942.706,-947.102,-936.974,-936.473,-936.191,-939.883,-941.016,-939.077,-938.231,-937.494,-948.809,-950.972,-938.254,-956.463,-955.612,-936.327,-936.198,-943.105,-941.412,-942.44,-940.971,-948.66,-950.857,-938.374,-937.707,-937.287,-947.599,-945.672,-949.701,-951.456,-939.024,-939.425,-940.321,-944.25,-944.592,-946.784,-936.583,-936.499,-937.043,-953.453,-954.924,-952.834,-939.818,-938.62,
3400,-936.76,-957.358,-957.552,-936.729,-957.299,-957.337,-936.735,-936.756,-939.841,-937.499,-937.074,-938.279,-945.604,-944.605,-947.148,-950.688,-953.592,-949.223,-942.398,-941.049,-943.745,-936.868,-955.787,-954.941,-956.805,-953.418,-945.346,-943.219,-947.576,-937.539,-937.042,-936.763,-940.422,-941.545,-939.624,-938.785,-938.055,-949.268,-951.412,-938.808,-956.853,-956.01,-936.898,-936.77,-943.615,-941.937,-942.956,-941.5,-949.121,-951.298,-938.927,-938.266,-937.849,-948.069,-946.159,-950.152,-951.891,-939.571,-939.968,-940.856,-944.75,-945.089,-947.262,-937.152,-937.068,-937.608,-953.87,-955.328,-953.257,-940.358,-939.171,
3425,-937.327,-957.74,-957.932,-937.296,-957.682,-957.72,-937.302,-937.324,-940.381,-938.059,-937.639,-938.832,-946.092,-945.102,-947.622,-951.13,-954.008,-949.678,-942.915,-941.578,-944.25,-937.434,-956.183,-955.346,-957.192,-953.835,-945.836,-943.729,-948.046,-938.099,-937.607,-937.33,-940.956,-942.069,-940.165,-939.334,-938.61,-949.723,-951.848,-939.357,-957.24,-956.405,-937.464,-937.337,-944.121,-942.458,-943.467,-942.025,-949.577,-951.735,-939.474,-938.819,-938.407,-948.535,-946.642,-950.599,-952.322,-940.113,-940.506,-941.386,-945.246,-945.581,-947.735,-937.716,-937.632,-938.167,-954.284,-955.729,-953.676,-940.892,-939.716,
3450,-937.889,-958.119,-958.31,-937.859,-958.062,-958.099,-937.864,-937.886,-940.915,-938.615,-938.198,-939.381,-946.576,-945.594,-948.091,-951.568,-954.421,-950.129,-943.427,-942.101,-944.75,-937.996,-956.576,-955.746,-957.576,-954.249,-946.322,-944.233,-948.512,-938.654,-938.167,-937.892,-941.486,-942.588,-940.702,-939.878,-939.161,-950.174,-952.28,-939.901,-957.623,-956.796,-938.025,-937.899,-944.622,-942.974,-943.974,-942.545,-950.029,-952.167,-940.017,-939.368,-938.959,-948.996,-947.12,-951.042,-952.75,-940.65,-941.04,-941.912,-945.737,-946.069,-948.203,-938.274,-938.192,-938.722,-954.694,-956.126,-954.091,-941.423,-940.257,
3475,-938.446,-958.495,-958.684,-938.416,-958.438,-958.475,-938.421,-938.443,-941.445,-939.165,-938.752,-939.924,-947.055,-946.082,-948.557,-952.003,-954.83,-950.577,-943.934,-942.621,-945.245,-938.552,-956.966,-956.143,-957.956,-954.66,-946.803,-944.733,-948.974,-939.204,-938.721,-938.449,-942.01,-943.103,-941.233,-940.417,-939.706,-950.621,-952.708,-940.44,-958.003,-957.183,-938.581,-938.456,-945.119,-943.486,-944.477,-943.06,-950.477,-952.596,-940.555,-939.912,-939.506,-949.454,-947.595,-951.481,-953.174,-941.182,-941.568,-942.433,-946.224,-946.553,-948.668,-938.828,-938.746,-939.271,-955.1,-956.519,-954.503,-941.948,-940.793,
3500,-938.998,-958.867,-959.054,-938.968,-958.811,-958.847,-938.974,-938.995,-941.97,-939.711,-939.301,-940.463,-947.529,-946.566,-949.018,-952.433,-955.235,-951.02,-944.437,-943.135,-945.736,-939.103,-957.352,-956.536,-958.333,-955.066,-947.28,-945.229,-949.431,-939.749,-939.271,-939.001,-942.531,-943.614,-941.76,-940.952,-940.247,-951.064,-953.132,-940.974,-958.38,-957.567,-939.132,-939.008,-945.611,-943.992,-944.975,-943.571,-950.921,-953.021,-941.088,-940.45,-940.049,-949.907,-948.065,-951.916,-953.594,-941.71,-942.092,-942.949,-946.706,-947.032,-949.128,-939.376,-939.295,-939.816,-955.503,-956.909,-954.911,-942.468,-941.324,
3525,-939.545,-959.236,-959.421,-939.516,-959.18,-959.216,-939.521,-939.542,-942.491,-940.251,-939.846,-940.997,-948,-947.045,-949.475,-952.86,-955.636,-951.459,-944.935,-943.645,-946.223,-939.649,-957.734,-956.926,-958.707,-955.469,-947.753,-945.72,-949.885,-940.29,-939.815,-939.548,-943.046,-944.119,-942.283,-941.481,-940.783,-951.503,-953.552,-941.503,-958.753,-957.947,-939.677,-939.555,-946.098,-944.495,-945.468,-944.077,-951.361,-953.443,-941.617,-940.984,-940.587,-950.356,-948.53,-952.347,-954.01,-942.232,-942.612,-943.461,-947.184,-947.507,-949.584,-939.92,-939.84,-940.356,-955.902,-957.296,-955.315,-942.984,-941.85,
3550,-940.087,-959.601,-959.785,-940.058,-959.546,-959.582,-940.063,-940.084,-943.006,-940.787,-940.385,-941.526,-948.466,-947.52,-949.928,-953.282,-956.034,-951.894,-945.429,-944.151,-946.705,-940.19,-958.113,-957.312,-959.077,-955.868,-948.221,-946.207,-950.334,-940.825,-940.355,-940.09,-943.557,-944.62,-942.8,-942.006,-941.314,-951.937,-953.969,-942.028,-959.123,-958.325,-940.218,-940.097,-946.582,-944.992,-945.957,-944.578,-951.798,-953.86,-942.14,-941.514,-941.119,-950.802,-948.992,-952.774,-954.422,-942.75,-943.126,-943.968,-947.657,-947.978,-950.036,-940.459,-940.379,-940.891,-956.298,-957.679,-955.716,-943.496,-942.371,
3575,-940.625,-959.964,-960.146,-940.596,-959.909,-959.944,-940.601,-940.621,-943.518,-941.318,-940.92,-942.051,-948.928,-947.99,-950.378,-953.701,-956.428,-952.326,-945.918,-944.651,-947.183,-940.726,-958.489,-957.695,-959.444,-956.264,-948.686,-946.689,-950.78,-941.356,-940.89,-940.627,-944.063,-945.117,-943.313,-942.526,-941.84,-952.368,-954.381,-942.548,-959.49,-958.698,-940.754,-940.634,-947.061,-945.486,-946.442,-945.075,-952.23,-954.274,-942.659,-942.038,-941.647,-951.243,-949.449,-953.198,-954.831,-943.264,-943.636,-944.47,-948.127,-948.444,-950.484,-940.993,-940.914,-941.421,-956.689,-958.058,-956.113,-944.002,-942.888,
3600,-941.157,-960.323,-960.503,-941.128,-960.268,-960.303,-941.133,-941.154,-944.024,-941.844,-941.449,-942.57,-949.386,-948.457,-950.823,-954.117,-956.819,-952.753,-946.403,-945.148,-947.657,-941.258,-958.861,-958.074,-959.808,-956.656,-949.146,-947.167,-951.221,-941.882,-941.42,-941.16,-944.564,-945.609,-943.822,-943.041,-942.362,-952.796,-954.79,-943.063,-959.853,-959.069,-941.286,-941.167,-947.536,-945.975,-946.922,-945.568,-952.658,-954.684,-943.173,-942.558,-942.171,-951.68,-949.903,-953.618,-955.236,-943.773,-944.142,-944.968,-948.592,-948.907,-950.928,-941.522,-941.444,-941.946,-957.078,-958.434,-956.507,-944.505,-943.4,
3625,-941.685,-960.678,-960.857,-941.656,-960.625,-960.659,-941.661,-941.681,-944.526,-942.366,-941.974,-943.085,-949.84,-948.919,-951.264,-954.528,-957.206,-953.177,-946.884,-945.64,-948.126,-941.785,-959.23,-958.45,-960.168,-957.045,-949.602,-947.641,-951.659,-942.403,-941.945,-941.687,-945.062,-946.097,-944.325,-943.552,-942.879,-953.219,-955.196,-943.573,-960.213,-959.436,-941.812,-941.694,-948.006,-946.459,-947.398,-946.056,-953.083,-955.09,-943.683,-943.073,-942.689,-952.113,-950.352,-954.034,-955.637,-944.277,-944.643,-945.462,-949.053,-949.365,-951.369,-942.046,-941.969,-942.467,-957.463,-958.807,-956.897,-945.002,-943.908,
3650,-942.208,-961.031,-961.208,-942.179,-960.978,-961.012,-942.185,-942.204,-945.023,-942.883,-942.495,-943.596,-950.29,-949.377,-951.701,-954.936,-957.59,-953.597,-947.36,-946.127,-948.591,-942.307,-959.596,-958.823,-960.526,-957.43,-950.054,-948.111,-952.092,-942.919,-942.466,-942.21,-945.554,-946.58,-944.825,-944.058,-943.391,-953.638,-955.598,-944.079,-960.57,-959.8,-942.334,-942.217,-948.472,-946.939,-947.87,-946.54,-953.504,-955.493,-944.188,-943.584,-943.203,-952.543,-950.797,-954.446,-956.035,-944.776,-945.139,-945.951,-949.51,-949.819,-951.805,-942.566,-942.489,-942.983,-957.844,-959.177,-957.283,-945.495,-944.411,
3675,-942.726,-961.381,-961.556,-942.698,-961.328,-961.362,-942.703,-942.723,-945.517,-943.395,-943.011,-944.101,-950.736,-949.831,-952.134,-955.34,-957.97,-954.013,-947.832,-946.61,-949.052,-942.824,-959.958,-959.192,-960.88,-957.812,-950.502,-948.576,-952.522,-943.431,-942.982,-942.729,-946.043,-947.059,-945.319,-944.56,-943.899,-954.054,-955.996,-944.581,-960.923,-960.16,-942.851,-942.735,-948.934,-947.415,-948.337,-947.019,-953.921,-955.892,-944.688,-944.089,-943.713,-952.968,-951.238,-954.854,-956.43,-945.272,-945.631,-946.435,-949.963,-950.269,-952.237,-943.081,-943.005,-943.494,-958.222,-959.543,-957.666,-945.984,-944.909,
3700,-943.24,-961.727,-961.901,-943.212,-961.674,-961.708,-943.217,-943.236,-946.005,-943.903,-943.522,-944.603,-951.178,-950.281,-952.563,-955.74,-958.347,-954.425,-948.3,-947.089,-949.509,-943.337,-960.317,-959.558,-961.23,-958.19,-950.946,-949.037,-952.948,-943.938,-943.493,-943.242,-946.526,-947.534,-945.81,-945.057,-944.402,-954.466,-956.39,-945.078,-961.274,-960.517,-943.364,-943.249,-949.392,-947.887,-948.801,-947.494,-954.334,-956.288,-945.184,-944.591,-944.217,-953.39,-951.676,-955.259,-956.82,-945.762,-946.119,-946.916,-950.411,-950.715,-952.665,-943.591,-943.516,-944.001,-958.597,-959.905,-958.046,-946.469,-945.403,
3725,-943.749,-962.07,-962.243,-943.721,-962.018,-962.052,-943.726,-943.745,-946.489,-944.406,-944.028,-945.1,-951.616,-950.727,-952.988,-956.137,-958.721,-954.834,-948.764,-947.564,-949.962,-943.845,-960.673,-959.921,-961.578,-958.565,-951.386,-949.494,-953.369,-944.441,-944,-943.751,-947.006,-948.005,-946.296,-945.55,-944.9,-954.875,-956.782,-945.57,-961.621,-960.871,-943.872,-943.758,-949.846,-948.354,-949.26,-947.965,-954.743,-956.68,-945.676,-945.088,-944.718,-953.808,-952.109,-955.66,-957.207,-946.249,-946.602,-947.392,-950.856,-951.157,-953.09,-944.097,-944.023,-944.503,-958.968,-960.265,-958.422,-946.949,-945.893,
3750,-944.253,-962.41,-962.581,-944.226,-962.359,-962.392,-944.231,-944.25,-946.969,-944.904,-944.53,-945.592,-952.049,-951.169,-953.41,-956.531,-959.091,-955.239,-949.223,-948.034,-950.411,-944.348,-961.026,-960.28,-961.923,-958.937,-951.822,-949.947,-953.788,-944.939,-944.502,-944.256,-947.481,-948.471,-946.777,-946.038,-945.394,-955.279,-957.169,-946.058,-961.965,-961.222,-944.375,-944.262,-950.296,-948.817,-949.715,-948.432,-955.149,-957.068,-946.163,-945.58,-945.213,-954.222,-952.538,-956.058,-957.591,-946.731,-947.081,-947.864,-951.297,-951.595,-953.51,-944.599,-944.525,-945,-959.336,-960.621,-958.795,-947.424,-946.378,
3775,-944.753,-962.747,-962.917,-944.726,-962.696,-962.729,-944.731,-944.75,-947.445,-945.398,-945.027,-946.08,-952.479,-951.607,-953.828,-956.921,-959.458,-955.641,-949.679,-948.5,-950.855,-944.848,-961.375,-960.636,-962.264,-959.305,-952.254,-950.396,-954.202,-945.433,-945,-944.755,-947.952,-948.933,-947.255,-946.522,-945.884,-955.68,-957.553,-946.542,-962.306,-961.57,-944.874,-944.762,-950.742,-949.276,-950.166,-948.894,-955.551,-957.453,-946.646,-946.068,-945.705,-954.633,-952.964,-956.452,-957.972,-947.209,-947.555,-948.331,-951.733,-952.029,-953.927,-945.095,-945.022,-945.494,-959.701,-960.974,-959.165,-947.896,-946.859,
3800,-945.248,-963.081,-963.249,-945.222,-963.031,-963.063,-945.226,-945.245,-947.916,-945.888,-945.52,-946.563,-952.906,-952.041,-954.242,-957.307,-959.821,-956.038,-950.13,-948.962,-951.296,-945.342,-961.721,-960.989,-962.602,-959.67,-952.682,-950.841,-954.613,-945.923,-945.493,-945.251,-948.419,-949.391,-947.728,-947.002,-946.369,-956.078,-957.934,-947.022,-962.644,-961.915,-945.368,-945.257,-951.183,-949.731,-950.613,-949.352,-955.95,-957.835,-947.124,-946.552,-946.192,-955.04,-953.386,-956.843,-958.348,-947.682,-948.026,-948.795,-952.166,-952.459,-954.34,-945.588,-945.515,-945.982,-960.062,-961.324,-959.531,-948.363,-947.336,
3825,-945.739,-963.412,-963.579,-945.713,-963.362,-963.395,-945.718,-945.736,-948.383,-946.373,-946.009,-947.043,-953.328,-952.471,-954.652,-957.69,-960.182,-956.433,-950.577,-949.419,-951.733,-945.832,-962.065,-961.339,-962.938,-960.032,-953.106,-951.282,-955.02,-946.407,-945.982,-945.742,-948.881,-949.845,-948.196,-947.477,-946.85,-956.472,-958.311,-947.497,-962.979,-962.256,-945.858,-945.748,-951.621,-950.182,-951.056,-949.807,-956.345,-958.213,-947.598,-947.031,-946.674,-955.443,-953.804,-957.23,-958.722,-948.151,-948.492,-949.254,-952.595,-952.886,-954.75,-946.076,-946.004,-946.467,-960.42,-961.671,-959.894,-948.826,-947.808,
3850,-946.226,-963.741,-963.906,-946.2,-963.691,-963.723,-946.204,-946.223,-948.846,-946.854,-946.493,-947.517,-953.746,-952.897,-955.059,-958.069,-960.539,-956.823,-951.02,-949.873,-952.166,-946.318,-962.405,-961.686,-963.27,-960.39,-953.527,-951.719,-955.423,-946.888,-946.466,-946.228,-949.34,-950.295,-948.661,-947.948,-947.327,-956.862,-958.685,-947.968,-963.311,-962.595,-946.344,-946.235,-952.055,-950.629,-951.494,-950.257,-956.736,-958.588,-948.068,-947.506,-947.152,-955.842,-954.218,-957.613,-959.092,-948.616,-948.954,-949.709,-953.02,-953.308,-955.156,-946.559,-946.488,-946.947,-960.775,-962.015,-960.253,-949.285,-948.276,
3875,-946.708,-964.066,-964.229,-946.682,-964.017,-964.048,-946.687,-946.705,-949.305,-947.331,-946.973,-947.988,-954.161,-953.319,-955.462,-958.445,-960.893,-957.211,-951.459,-950.322,-952.595,-946.799,-962.742,-962.03,-963.6,-960.745,-953.943,-952.151,-955.823,-947.364,-946.946,-946.711,-949.794,-950.74,-949.121,-948.415,-947.799,-957.249,-959.055,-948.434,-963.64,-962.93,-946.825,-946.717,-952.485,-951.071,-951.929,-950.703,-957.124,-958.959,-948.534,-947.977,-947.626,-956.238,-954.629,-957.993,-959.459,-949.077,-949.411,-950.16,-953.442,-953.727,-955.558,-947.039,-946.968,-947.423,-961.127,-962.356,-960.61,-949.74,-948.74,
3900,-947.186,-964.388,-964.55,-947.16,-964.339,-964.371,-947.165,-947.183,-949.759,-947.803,-947.448,-948.455,-954.572,-953.738,-955.861,-958.818,-961.243,-957.594,-951.895,-950.768,-953.02,-947.277,-963.076,-962.37,-963.926,-961.097,-954.356,-952.581,-956.219,-947.836,-947.422,-947.188,-950.244,-951.182,-949.578,-948.877,-948.267,-957.632,-959.423,-948.897,-963.966,-963.263,-947.302,-947.195,-952.911,-951.51,-952.361,-951.145,-957.509,-959.327,-948.996,-948.443,-948.096,-956.631,-955.036,-958.37,-959.823,-949.534,-949.865,-950.607,-953.859,-954.142,-955.956,-947.513,-947.443,-947.894,-961.476,-962.693,-960.963,-950.191,-949.2,
3925,-947.66,-964.707,-964.868,-947.634,-964.659,-964.69,-947.639,-947.657,-950.21,-948.271,-947.92,-948.917,-954.98,-954.153,-956.257,-959.187,-961.591,-957.975,-952.326,-951.209,-953.441,-947.749,-963.407,-962.708,-964.249,-961.446,-954.766,-953.006,-956.612,-948.304,-947.893,-947.662,-950.691,-951.62,-950.03,-949.336,-948.731,-958.012,-959.787,-949.355,-964.29,-963.592,-947.774,-947.668,-953.333,-951.945,-952.788,-951.583,-957.89,-959.692,-949.453,-948.906,-948.561,-957.02,-955.439,-958.743,-960.183,-949.986,-950.315,-951.05,-954.273,-954.553,-956.351,-947.984,-947.915,-948.361,-961.821,-963.028,-961.313,-950.637,-949.655,
3950,-948.129,-965.024,-965.183,-948.104,-964.976,-965.007,-948.108,-948.126,-950.656,-948.735,-948.387,-949.375,-955.383,-954.564,-956.649,-959.553,-961.935,-958.351,-952.754,-951.647,-953.859,-948.218,-963.735,-963.042,-964.57,-961.792,-955.171,-953.427,-957.001,-948.768,-948.361,-948.131,-951.133,-952.054,-950.478,-949.79,-949.191,-958.389,-960.147,-949.809,-964.61,-963.918,-948.242,-948.137,-953.752,-952.376,-953.211,-952.017,-958.268,-960.053,-949.906,-949.364,-949.023,-957.405,-955.838,-959.113,-960.54,-950.435,-950.76,-951.489,-954.683,-954.961,-956.743,-948.451,-948.382,-948.825,-962.164,-963.359,-961.66,-951.08,-950.107,
3975,-948.594,-965.337,-965.495,-948.569,-965.29,-965.321,-948.574,-948.591,-951.099,-949.195,-948.85,-949.829,-955.784,-954.971,-957.038,-959.916,-962.277,-958.725,-953.177,-952.081,-954.272,-948.682,-964.061,-963.373,-964.888,-962.135,-955.573,-953.845,-957.386,-949.227,-948.824,-948.597,-951.571,-952.484,-950.922,-950.24,-949.647,-958.762,-960.505,-950.259,-964.927,-964.242,-948.707,-948.602,-954.167,-952.803,-953.631,-952.447,-958.642,-960.412,-950.356,-949.818,-949.48,-957.787,-956.234,-959.48,-960.894,-950.879,-951.202,-951.924,-955.089,-955.365,-957.131,-948.913,-948.845,-949.283,-962.503,-963.688,-962.004,-951.519,-950.554,
4000,-949.055,-965.648,-965.805,-949.03,-965.601,-965.632,-949.035,-949.052,-951.537,-949.65,-949.308,-950.279,-956.18,-955.375,-957.423,-960.275,-962.615,-959.095,-953.597,-952.51,-954.682,-949.142,-964.383,-963.702,-965.203,-962.474,-955.972,-954.259,-957.769,-949.683,-949.283,-949.058,-952.005,-952.91,-951.362,-950.687,-950.098,-959.132,-960.859,-950.705,-965.242,-964.563,-949.167,-949.063,-954.578,-953.226,-954.047,-952.874,-959.013,-960.767,-950.801,-950.268,-949.933,-958.166,-956.627,-959.843,-961.244,-951.32,-951.639,-952.355,-955.492,-955.765,-957.515,-949.371,-949.303,-949.738,-962.839,-964.014,-962.345,-951.953,-950.997,