X Coordinates:
5.41247,5.76828,8.96036,9.30718,8.54177,7.20553,7.65076,6.69203,1.1363,1.40899,0.730264,6.11861,6.37302,8.09558,2.59606,3.04066,2.32883,3.64428,4.2528,4.58686,0,0.365132,9.75833,10,1.67385,4.95263,9.51701,2.06611,

 Time(s),  sigmaYY(Pa) on vertices
0,-774.943,-774.943,-774.943,-774.943,-774.943,-774.943,-774.943,-774.943,-774.943,-774.943,-774.943,-774.943,-774.943,-774.943,-774.943,-774.943,-774.943,-774.943,-774.943,-774.943,-774.943,-774.943,-774.943,-774.943,-774.943,-774.943,-774.943,-774.943,
25,-784.991,-784.991,-798.222,-808.552,-792.333,-785.164,-785.76,-785,-784.99,-784.99,-784.99,-784.993,-784.996,-787.584,-784.99,-784.99,-784.99,-784.99,-784.99,-784.99,-784.99,-784.99,-829.874,-836.013,-784.99,-784.99,-819.231,-784.99,
50,-789.038,-789.09,-811.814,-821.471,-804.392,-790.882,-793.314,-789.686,-789.011,-789.011,-789.011,-789.198,-789.367,-797.602,-789.011,-789.011,-789.011,-789.011,-789.012,-789.014,-789.011,-789.011,-837.654,-842.003,-789.011,-789.022,-829.843,-789.011,
75,-792.357,-792.617,-820.313,-829.007,-812.944,-796.648,-800.361,-794.425,-792.138,-792.138,-792.138,-793.021,-793.548,-805.733,-792.138,-792.139,-792.138,-792.144,-792.154,-792.186,-792.138,-792.138,-842.562,-846.123,-792.138,-792.252,-836.091,-792.138,
100,-795.481,-796.059,-826.509,-834.433,-819.45,-802.039,-806.475,-799.104,-794.796,-794.796,-794.796,-796.821,-797.72,-812.277,-794.8,-794.809,-794.798,-794.84,-794.887,-795.01,-794.796,-794.796,-846.344,-849.439,-794.797,-795.202,-840.688,-794.797,
125,-798.548,-799.468,-831.423,-838.743,-824.705,-806.939,-811.768,-803.543,-797.154,-797.156,-797.154,-800.559,-801.77,-817.71,-797.176,-797.208,-797.167,-797.296,-797.418,-797.69,-797.153,-797.153,-849.506,-852.284,-797.158,-798.052,-844.412,-797.161,
150,-801.568,-802.807,-835.532,-842.367,-829.13,-811.372,-816.408,-807.685,-799.301,-799.306,-799.298,-804.173,-805.628,-822.355,-799.364,-799.441,-799.341,-799.618,-799.847,-800.303,-799.297,-799.297,-852.269,-854.814,-799.313,-800.85,-847.592,-799.324,
175,-804.526,-806.042,-839.088,-845.526,-832.972,-815.4,-820.533,-811.531,-801.291,-801.304,-801.285,-807.628,-809.269,-826.42,-801.429,-801.569,-801.381,-801.859,-802.216,-802.871,-801.279,-801.28,-854.752,-857.116,-801.321,-803.599,-850.401,-801.346,
200,-807.403,-809.154,-842.244,-848.347,-836.381,-819.083,-824.248,-815.103,-803.164,-803.189,-803.15,-810.915,-812.695,-830.043,-803.409,-803.628,-803.328,-804.047,-804.542,-805.395,-803.139,-803.142,-857.026,-859.244,-803.222,-806.29,-852.938,-803.267,
225,-810.192,-812.137,-845.095,-850.914,-839.458,-822.473,-827.632,-818.431,-804.949,-804.991,-804.924,-814.035,-815.919,-833.32,-805.329,-805.638,-805.209,-806.194,-806.829,-807.871,-804.903,-804.908,-859.136,-861.234,-805.044,-808.916,-855.266,-805.116,
250,-812.885,-814.992,-847.707,-853.279,-842.272,-825.616,-830.743,-821.543,-806.666,-806.729,-806.628,-816.997,-818.959,-836.319,-807.206,-807.61,-807.041,-808.304,-809.075,-810.292,-806.594,-806.602,-861.114,-863.11,-806.807,-811.469,-857.429,-806.912,
275,-815.484,-817.723,-850.126,-855.482,-844.872,-828.546,-833.627,-824.465,-808.331,-808.42,-808.277,-819.811,-821.83,-839.09,-809.049,-809.55,-808.835,-810.378,-811.279,-812.656,-808.229,-808.24,-862.982,-864.89,-808.525,-813.948,-859.457,-808.666,
300,-817.989,-820.337,-852.385,-857.55,-847.295,-831.292,-836.318,-827.219,-809.958,-810.075,-809.886,-822.489,-824.551,-841.672,-810.862,-811.461,-810.598,-812.417,-813.439,-814.96,-809.82,-809.835,-864.758,-866.59,-810.21,-816.351,-861.371,-810.389,
325,-820.405,-822.842,-854.51,-859.504,-849.57,-833.879,-838.844,-829.824,-811.555,-811.701,-811.464,-825.044,-827.136,-844.092,-812.65,-813.343,-812.337,-814.42,-815.553,-817.203,-811.38,-811.399,-866.454,-868.218,-811.867,-818.681,-863.19,-812.086,
350,-822.735,-825.245,-856.521,-861.361,-851.717,-836.327,-841.229,-832.297,-813.13,-813.305,-813.018,-827.485,-829.598,-846.374,-814.414,-815.197,-814.052,-816.386,-817.622,-819.387,-812.915,-812.939,-868.08,-869.785,-813.502,-820.938,-864.926,-813.76,
375,-824.985,-827.555,-858.434,-863.134,-853.754,-838.652,-843.489,-834.652,-814.686,-814.891,-814.555,-829.822,-831.949,-848.537,-816.155,-817.023,-815.747,-818.317,-819.645,-821.511,-814.432,-814.461,-869.646,-871.297,-815.119,-823.126,-866.59,-815.416,
400,-827.159,-829.777,-860.26,-864.833,-855.695,-840.868,-845.64,-836.901,-816.228,-816.462,-816.078,-832.065,-834.2,-850.595,-817.875,-818.822,-817.423,-820.211,-821.623,-823.579,-815.935,-815.969,-871.157,-872.759,-816.719,-825.249,-868.19,-817.054,
425,-829.262,-831.919,-862.01,-866.467,-857.552,-842.986,-847.694,-839.054,-817.759,-818.02,-817.589,-834.222,-836.36,-852.56,-819.575,-820.595,-819.08,-822.07,-823.558,-825.592,-817.429,-817.466,-872.619,-874.177,-818.306,-827.308,-869.733,-818.676,
450,-831.299,-833.987,-863.693,-868.042,-859.333,-845.016,-849.662,-841.122,-819.28,-819.567,-819.092,-836.299,-838.437,-854.444,-821.254,-822.341,-820.721,-823.895,-825.45,-827.553,-818.914,-818.956,-874.037,-875.555,-819.88,-829.309,-871.226,-820.283,
475,-833.275,-835.986,-865.315,-869.565,-861.047,-846.967,-851.552,-843.112,-820.792,-821.104,-820.588,-838.303,-840.439,-856.253,-822.913,-824.062,-822.344,-825.686,-827.301,-829.465,-820.393,-820.439,-875.416,-876.897,-821.442,-831.254,-872.673,-821.876,
500,-835.192,-837.921,-866.883,-871.041,-862.701,-848.847,-853.371,-845.03,-822.297,-822.632,-822.077,-840.241,-842.371,-857.997,-824.553,-825.758,-823.951,-827.445,-829.112,-831.329,-821.866,-821.916,-876.758,-878.204,-822.992,-833.146,-874.078,-823.455,
525,-837.055,-839.798,-868.401,-872.473,-864.299,-850.662,-855.128,-846.883,-823.794,-824.15,-823.559,-842.116,-844.239,-859.68,-826.174,-827.429,-825.543,-829.172,-830.887,-833.149,-823.334,-823.387,-878.066,-879.48,-824.532,-834.99,-875.444,-825.021,
550,-838.868,-841.62,-869.874,-873.866,-865.848,-852.417,-856.826,-848.676,-825.284,-825.659,-825.036,-843.935,-846.049,-861.309,-827.777,-829.077,-827.119,-830.87,-832.625,-834.926,-824.798,-824.854,-879.343,-880.728,-826.061,-836.787,-876.776,-826.574,
575,-840.634,-843.391,-871.306,-875.222,-867.351,-854.117,-858.471,-850.415,-826.767,-827.159,-826.507,-845.701,-847.806,-862.888,-829.361,-830.702,-828.679,-832.538,-834.33,-836.664,-826.256,-826.315,-880.591,-881.949,-827.579,-838.54,-878.075,-828.113,
600,-842.356,-845.115,-872.7,-876.545,-868.813,-855.767,-860.068,-852.102,-828.242,-828.651,-827.971,-847.418,-849.512,-864.421,-830.929,-832.305,-830.225,-834.18,-836.002,-838.364,-827.71,-827.772,-881.813,-883.144,-829.086,-840.253,-879.345,-829.64,
625,-844.037,-846.796,-874.059,-877.838,-870.236,-857.371,-861.62,-853.743,-829.711,-830.133,-829.43,-849.09,-851.172,-865.912,-832.479,-833.886,-831.756,-835.794,-837.644,-840.029,-829.158,-829.222,-883.01,-884.317,-830.583,-841.927,-880.587,-831.154,
650,-845.679,-848.435,-875.386,-879.101,-871.623,-858.932,-863.131,-855.341,-831.171,-831.607,-830.881,-850.719,-852.789,-867.364,-834.012,-835.447,-833.272,-837.384,-839.256,-841.66,-830.601,-830.668,-884.183,-885.467,-832.069,-843.565,-881.803,-832.656,
675,-847.285,-850.036,-876.682,-880.337,-872.977,-860.453,-864.603,-856.899,-832.624,-833.071,-832.326,-852.31,-854.366,-868.78,-835.529,-836.987,-834.774,-838.949,-840.84,-843.26,-832.038,-832.106,-885.335,-886.597,-833.544,-845.169,-882.994,-834.145,
700,-848.857,-851.601,-877.951,-881.549,-874.3,-861.937,-866.04,-858.419,-834.069,-834.525,-833.764,-853.863,-855.906,-870.163,-837.03,-838.509,-836.262,-840.491,-842.398,-844.829,-833.469,-833.539,-886.466,-887.707,-835.008,-846.741,-884.163,-835.621,
725,-850.397,-853.132,-879.193,-882.737,-875.595,-863.387,-867.443,-859.904,-835.505,-835.971,-835.194,-855.382,-857.411,-871.514,-838.515,-840.011,-837.736,-842.011,-843.93,-846.37,-834.893,-834.965,-887.577,-888.799,-836.462,-848.283,-885.31,-837.085,
750,-851.906,-854.632,-880.411,-883.903,-876.862,-864.805,-868.816,-861.356,-836.933,-837.406,-836.617,-856.869,-858.883,-872.836,-839.984,-841.496,-839.196,-843.509,-845.438,-847.884,-836.311,-836.383,-888.67,-889.874,-837.905,-849.796,-886.438,-838.537,
775,-853.388,-856.102,-881.605,-885.048,-878.105,-866.193,-870.16,-862.778,-838.352,-838.831,-838.031,-858.325,-860.325,-874.131,-841.439,-842.962,-840.643,-844.987,-846.924,-849.373,-837.72,-837.794,-889.746,-890.932,-839.337,-851.283,-887.546,-839.977,
800,-854.842,-857.544,-882.778,-886.173,-879.324,-867.552,-871.477,-864.17,-839.762,-840.247,-839.437,-859.753,-861.738,-875.401,-842.879,-844.412,-842.076,-846.445,-848.387,-850.837,-839.122,-839.197,-890.805,-891.974,-840.757,-852.743,-888.636,-841.404,
825,-856.271,-858.96,-883.93,-887.28,-880.521,-868.885,-872.768,-865.536,-841.163,-841.652,-840.835,-861.154,-863.125,-876.646,-844.304,-845.845,-843.496,-847.884,-849.829,-852.278,-840.516,-840.592,-891.848,-893.001,-842.167,-854.18,-889.709,-842.819,
850,-857.676,-860.35,-885.063,-888.369,-881.696,-870.193,-874.035,-866.877,-842.554,-843.047,-842.223,-862.53,-864.485,-877.869,-845.716,-847.262,-844.903,-849.305,-851.251,-853.697,-841.902,-841.978,-892.876,-894.014,-843.566,-855.593,-890.766,-844.222,
875,-859.058,-861.718,-886.177,-889.442,-882.852,-871.478,-875.279,-868.193,-843.935,-844.432,-843.602,-863.882,-865.822,-879.07,-847.113,-848.663,-846.297,-850.708,-852.654,-855.095,-843.279,-843.356,-893.89,-895.012,-844.953,-856.984,-891.808,-845.613,
900,-860.419,-863.062,-887.274,-890.498,-883.989,-872.74,-876.502,-869.487,-845.307,-845.806,-844.973,-865.211,-867.136,-880.252,-848.496,-850.049,-847.678,-852.094,-854.038,-856.473,-844.647,-844.724,-894.89,-895.998,-846.33,-858.354,-892.834,-846.992,
925,-861.758,-864.385,-888.354,-891.539,-885.108,-873.981,-877.705,-870.759,-846.669,-847.17,-846.333,-866.519,-868.428,-881.413,-849.866,-851.42,-849.047,-853.463,-855.404,-857.832,-846.006,-846.084,-895.876,-896.97,-847.695,-859.704,-893.846,-848.359,
950,-863.078,-865.688,-889.419,-892.566,-886.21,-875.202,-878.888,-872.011,-848.021,-848.523,-847.684,-867.806,-869.7,-882.557,-851.223,-852.776,-850.403,-854.816,-856.752,-859.172,-847.356,-847.434,-896.85,-897.931,-849.049,-861.035,-894.845,-849.715,
975,-864.379,-866.972,-890.468,-893.578,-887.295,-876.404,-880.054,-873.243,-849.363,-849.865,-849.025,-869.073,-870.952,-883.683,-852.566,-854.118,-851.746,-856.154,-858.084,-860.494,-848.697,-848.775,-897.812,-898.879,-850.392,-862.348,-895.83,-851.058,
1000,-865.661,-868.237,-891.503,-894.577,-888.365,-877.588,-881.201,-874.456,-850.694,-851.197,-850.357,-870.322,-872.185,-884.793,-853.897,-855.446,-853.078,-857.476,-859.4,-861.799,-850.028,-850.106,-898.761,-899.816,-851.724,-863.643,-896.803,-852.39,
1025,-866.926,-869.484,-892.523,-895.563,-889.421,-878.755,-882.332,-875.652,-852.016,-852.518,-851.678,-871.553,-873.401,-885.886,-855.215,-856.76,-854.397,-858.784,-860.7,-863.088,-851.349,-851.427,-899.699,-900.742,-853.045,-864.92,-897.763,-853.71,
1050,-868.175,-870.714,-893.53,-896.537,-890.461,-879.904,-883.447,-876.831,-853.327,-853.829,-852.989,-872.767,-874.599,-886.965,-856.521,-858.061,-855.704,-860.077,-861.985,-864.361,-852.661,-852.739,-900.626,-901.658,-854.355,-866.182,-898.712,-855.019,
1075,-869.407,-871.928,-894.525,-897.498,-891.489,-881.039,-884.546,-877.994,-854.627,-855.129,-854.291,-873.964,-875.781,-888.028,-857.814,-859.349,-857,-861.356,-863.256,-865.618,-853.963,-854.04,-901.543,-902.562,-855.653,-867.428,-899.65,-856.316,
1100,-870.624,-873.126,-895.507,-898.448,-892.503,-882.157,-885.631,-879.141,-855.918,-856.418,-855.582,-875.146,-876.948,-889.078,-859.095,-860.624,-858.283,-862.622,-864.512,-866.86,-855.254,-855.332,-902.448,-903.457,-856.941,-868.658,-900.576,-857.602,
1125,-871.826,-874.309,-896.477,-899.387,-893.504,-883.261,-886.702,-880.273,-857.198,-857.696,-856.862,-876.312,-878.099,-890.115,-860.364,-861.886,-859.555,-863.874,-865.754,-868.088,-856.536,-856.613,-903.344,-904.342,-858.218,-869.874,-901.492,-858.876,
1150,-873.014,-875.477,-897.435,-900.315,-894.493,-884.351,-887.759,-881.39,-858.467,-858.964,-858.133,-877.464,-879.236,-891.138,-861.621,-863.136,-860.816,-865.114,-866.983,-869.302,-857.808,-857.885,-904.23,-905.217,-859.484,-871.076,-902.397,-860.14,
1175,-874.187,-876.632,-898.382,-901.232,-895.47,-885.428,-888.803,-882.494,-859.726,-860.221,-859.393,-878.602,-880.358,-892.149,-862.866,-864.374,-862.065,-866.34,-868.198,-870.503,-859.069,-859.146,-905.106,-906.082,-860.739,-872.263,-903.293,-861.392,
1200,-875.347,-877.772,-899.318,-902.139,-896.435,-886.491,-889.834,-883.584,-860.975,-861.467,-860.643,-879.726,-881.467,-893.147,-864.1,-865.599,-863.303,-867.554,-869.4,-871.689,-860.321,-860.397,-905.972,-906.939,-861.983,-873.437,-904.178,-862.633,
1225,-876.493,-878.899,-900.243,-903.035,-897.39,-887.541,-890.853,-884.662,-862.213,-862.703,-861.883,-880.837,-882.563,-894.134,-865.322,-866.813,-864.529,-868.756,-870.59,-872.864,-861.562,-861.638,-906.83,-907.787,-863.216,-874.599,-905.054,-863.863,
1250,-877.627,-880.014,-901.159,-903.923,-898.333,-888.58,-891.86,-885.726,-863.441,-863.929,-863.113,-881.935,-883.646,-895.11,-866.533,-868.015,-865.745,-869.946,-871.768,-874.025,-862.793,-862.869,-907.679,-908.625,-864.439,-875.747,-905.921,-865.082,
1275,-878.748,-881.116,-902.064,-904.8,-899.266,-889.606,-892.856,-886.778,-864.659,-865.144,-864.332,-883.021,-884.717,-896.074,-867.733,-869.206,-866.949,-871.124,-872.933,-875.174,-864.014,-864.089,-908.518,-909.456,-865.651,-876.883,-906.778,-866.291,
1300,-879.857,-882.205,-902.959,-905.668,-900.189,-890.62,-893.84,-887.819,-865.866,-866.348,-865.541,-884.094,-885.776,-897.028,-868.922,-870.385,-868.143,-872.29,-874.087,-876.311,-865.225,-865.3,-909.35,-910.277,-866.852,-878.007,-907.627,-867.488,
1325,-880.955,-883.283,-903.845,-906.528,-901.101,-891.624,-894.814,-888.848,-867.063,-867.542,-866.74,-885.156,-886.823,-897.971,-870.1,-871.554,-869.326,-873.445,-875.229,-877.436,-866.426,-866.5,-910.172,-911.091,-868.043,-879.119,-908.467,-868.675,
1350,-882.04,-884.349,-904.721,-907.378,-902.004,-892.616,-895.776,-889.865,-868.25,-868.726,-867.929,-886.206,-887.858,-898.904,-871.267,-872.711,-870.498,-874.589,-876.359,-878.55,-867.616,-867.69,-910.987,-911.897,-869.224,-880.219,-909.298,-869.852,
1375,-883.114,-885.404,-905.589,-908.219,-902.898,-893.598,-896.729,-890.872,-869.426,-869.9,-869.108,-887.245,-888.883,-899.827,-872.423,-873.857,-871.66,-875.721,-877.479,-879.653,-868.797,-868.871,-911.793,-912.694,-870.394,-881.308,-910.121,-871.018,
1400,-884.177,-886.448,-906.447,-909.052,-903.782,-894.569,-897.671,-891.868,-870.593,-871.063,-870.276,-888.273,-889.896,-900.74,-873.569,-874.993,-872.811,-876.843,-878.587,-880.744,-869.968,-870.041,-912.592,-913.484,-871.554,-882.386,-910.935,-872.174,
1425,-885.23,-887.481,-907.297,-909.877,-904.657,-895.53,-898.603,-892.853,-871.749,-872.216,-871.435,-889.29,-890.899,-901.644,-874.705,-876.118,-873.952,-877.954,-879.685,-881.825,-871.128,-871.201,-913.382,-914.266,-872.704,-883.453,-911.742,-873.319,
1450,-886.271,-888.504,-908.138,-910.694,-905.523,-896.481,-899.526,-893.829,-872.896,-873.359,-872.583,-890.297,-891.892,-902.538,-875.83,-877.232,-875.083,-879.055,-880.772,-882.895,-872.279,-872.351,-914.165,-915.04,-873.844,-884.51,-912.541,-874.454,
1475,-887.303,-889.516,-908.97,-911.502,-906.38,-897.422,-900.439,-894.794,-874.032,-874.492,-873.722,-891.293,-892.874,-903.424,-876.945,-878.336,-876.203,-880.145,-881.848,-883.954,-873.42,-873.491,-914.941,-915.807,-874.973,-885.556,-913.331,-875.579,
1500,-888.323,-890.518,-909.795,-912.303,-907.229,-898.353,-901.343,-895.749,-875.159,-875.615,-874.851,-892.279,-893.847,-904.3,-878.05,-879.431,-877.314,-881.224,-882.915,-885.003,-874.551,-874.622,-915.708,-916.567,-876.093,-886.591,-914.115,-876.695,
1525,-889.334,-891.509,-910.611,-913.095,-908.069,-899.276,-902.238,-896.695,-876.275,-876.729,-875.97,-893.256,-894.809,-905.167,-879.144,-880.514,-878.414,-882.294,-883.971,-886.042,-875.672,-875.743,-916.469,-917.319,-877.202,-887.617,-914.89,-877.8,
1550,-890.335,-892.492,-911.419,-913.88,-908.901,-900.188,-903.124,-897.631,-877.382,-877.832,-877.079,-894.223,-895.762,-906.026,-880.229,-881.588,-879.505,-883.354,-885.017,-887.071,-876.784,-876.854,-917.222,-918.065,-878.302,-888.632,-915.658,-878.895,
1575,-891.326,-893.464,-912.22,-914.658,-909.725,-901.092,-904.001,-898.558,-878.479,-878.926,-878.179,-895.18,-896.706,-906.877,-881.304,-882.653,-880.585,-884.404,-886.053,-888.09,-877.885,-877.955,-917.968,-918.803,-879.392,-889.638,-916.419,-879.98,
1600,-892.308,-894.427,-913.013,-915.428,-910.541,-901.987,-904.87,-899.476,-879.567,-880.01,-879.268,-896.128,-897.64,-907.719,-882.369,-883.707,-881.656,-885.444,-887.079,-889.099,-878.978,-879.047,-918.708,-919.534,-880.473,-890.634,-917.173,-881.056,
1625,-893.28,-895.381,-913.798,-916.191,-911.349,-902.874,-905.73,-900.385,-880.645,-881.084,-880.349,-897.067,-898.566,-908.553,-883.425,-884.752,-882.718,-886.474,-888.096,-890.099,-880.06,-880.129,-919.44,-920.259,-881.544,-891.621,-917.919,-882.122,
1650,-894.243,-896.325,-914.575,-916.946,-912.149,-903.751,-906.581,-901.285,-881.713,-882.149,-881.42,-897.996,-899.482,-909.379,-884.471,-885.787,-883.769,-887.495,-889.103,-891.089,-881.133,-881.201,-920.165,-920.976,-882.605,-892.598,-918.659,-883.179,
1675,-895.197,-897.261,-915.346,-917.694,-912.942,-904.62,-907.425,-902.176,-882.773,-883.205,-882.481,-898.917,-900.39,-910.197,-885.508,-886.813,-884.812,-888.506,-890.101,-892.07,-882.197,-882.264,-920.884,-921.687,-883.657,-893.566,-919.391,-884.226,
1700,-896.141,-898.187,-916.109,-918.436,-913.727,-905.481,-908.26,-903.059,-883.822,-884.251,-883.533,-899.829,-901.288,-911.007,-886.535,-887.829,-885.845,-889.508,-891.09,-893.042,-883.252,-883.318,-921.595,-922.392,-884.699,-894.525,-920.117,-885.264,
1725,-897.077,-899.105,-916.864,-919.17,-914.504,-906.334,-909.088,-903.934,-884.863,-885.288,-884.576,-900.732,-902.179,-911.809,-887.553,-888.836,-886.869,-890.501,-892.069,-894.004,-884.297,-884.363,-922.301,-923.09,-885.733,-895.475,-920.836,-886.293,
1750,-898.004,-900.014,-917.613,-919.898,-915.275,-907.178,-909.907,-904.8,-885.894,-886.316,-885.61,-901.627,-903.06,-912.604,-888.562,-889.834,-887.883,-891.485,-893.04,-894.958,-885.333,-885.398,-923,-923.781,-886.757,-896.416,-921.548,-887.312,
1775,-898.922,-900.915,-918.355,-920.618,-916.038,-908.015,-910.719,-905.658,-886.916,-887.334,-886.634,-902.513,-903.934,-913.392,-889.562,-890.823,-888.889,-892.46,-894.001,-895.903,-886.359,-886.424,-923.692,-924.466,-887.771,-897.348,-922.254,-888.322,
1800,-899.832,-901.807,-919.089,-921.332,-916.794,-908.844,-911.524,-906.507,-887.929,-888.344,-887.649,-903.391,-904.799,-914.172,-890.552,-891.803,-889.885,-893.426,-894.954,-896.839,-887.377,-887.442,-924.378,-925.145,-888.777,-898.271,-922.953,-889.323,
1825,-900.733,-902.691,-919.817,-922.04,-917.542,-909.664,-912.32,-907.349,-888.933,-889.344,-888.656,-904.261,-905.656,-914.944,-891.534,-892.774,-890.872,-894.383,-895.898,-897.767,-888.386,-888.45,-925.057,-925.818,-889.774,-899.186,-923.645,-890.316,
1850,-901.626,-903.567,-920.539,-922.741,-918.284,-910.478,-913.109,-908.183,-889.928,-890.336,-889.653,-905.123,-906.506,-915.71,-892.507,-893.737,-891.851,-895.332,-896.833,-898.686,-889.385,-889.449,-925.731,-926.484,-890.762,-900.093,-924.332,-891.299,
1875,-902.511,-904.434,-921.253,-923.435,-919.019,-911.283,-913.891,-909.01,-890.914,-891.319,-890.642,-905.976,-907.347,-916.468,-893.471,-894.69,-892.821,-896.271,-897.76,-899.596,-890.376,-890.439,-926.398,-927.145,-891.741,-900.991,-925.012,-892.274,
1900,-903.388,-905.294,-921.961,-924.123,-919.748,-912.081,-914.666,-909.828,-891.892,-892.293,-891.622,-906.822,-908.18,-917.22,-894.427,-895.635,-893.782,-897.203,-898.678,-900.499,-891.358,-891.421,-927.059,-927.799,-892.712,-901.881,-925.685,-893.239,
1925,-904.256,-906.145,-922.662,-924.805,-920.469,-912.872,-915.434,-910.639,-892.861,-893.258,-892.593,-907.66,-909.006,-917.964,-895.374,-896.572,-894.734,-898.126,-899.588,-901.393,-892.332,-892.393,-927.714,-928.447,-893.673,-902.763,-926.353,-894.197,
1950,-905.116,-906.989,-923.357,-925.481,-921.184,-913.656,-916.194,-911.443,-893.821,-894.215,-893.555,-908.49,-909.824,-918.702,-896.312,-897.5,-895.678,-899.04,-900.49,-902.278,-893.296,-893.358,-928.363,-929.09,-894.626,-903.637,-927.015,-895.145,
1975,-905.969,-907.825,-924.046,-926.15,-921.892,-914.432,-916.947,-912.239,-894.772,-895.163,-894.509,-909.313,-910.635,-919.432,-897.242,-898.419,-896.614,-899.946,-901.383,-903.156,-894.252,-894.313,-929.007,-929.727,-895.571,-904.502,-927.67,-896.085,
2000,-906.814,-908.653,-924.728,-926.813,-922.594,-915.201,-917.694,-913.028,-895.715,-896.103,-895.454,-910.128,-911.438,-920.156,-898.164,-899.331,-897.541,-900.844,-902.269,-904.026,-895.2,-895.26,-929.644,-930.357,-896.507,-905.36,-928.32,-897.017,
2025,-907.651,-909.474,-925.405,-927.471,-923.289,-915.963,-918.433,-913.809,-896.65,-897.034,-896.391,-910.935,-912.234,-920.874,-899.077,-900.234,-898.46,-901.734,-903.146,-904.888,-896.139,-896.199,-930.276,-930.983,-897.435,-906.21,-928.963,-897.94,
2050,-908.48,-910.287,-926.074,-928.122,-923.978,-916.718,-919.166,-914.584,-897.576,-897.957,-897.32,-911.735,-913.022,-921.585,-899.982,-901.129,-899.37,-902.616,-904.015,-905.742,-897.07,-897.129,-930.902,-931.602,-898.355,-907.052,-929.601,-898.855,
2075,-909.302,-911.093,-926.738,-928.767,-924.661,-917.466,-919.892,-915.351,-898.494,-898.872,-898.24,-912.528,-913.804,-922.289,-900.879,-902.016,-900.273,-903.49,-904.877,-906.588,-897.992,-898.051,-931.522,-932.216,-899.266,-907.887,-930.233,-899.762,
2100,-910.117,-911.891,-927.396,-929.407,-925.338,-918.208,-920.612,-916.111,-899.404,-899.778,-899.152,-913.314,-914.578,-922.987,-901.768,-902.895,-901.167,-904.355,-905.73,-907.426,-898.907,-898.965,-932.136,-932.824,-900.169,-908.714,-930.859,-900.661,
2125,-910.923,-912.682,-928.048,-930.04,-926.008,-918.942,-921.325,-916.865,-900.306,-900.677,-900.056,-914.092,-915.345,-923.678,-902.649,-903.766,-902.053,-905.214,-906.576,-908.257,-899.813,-899.87,-932.745,-933.427,-901.064,-909.533,-931.48,-901.552,
2150,-911.723,-913.466,-928.694,-930.668,-926.672,-919.67,-922.031,-917.611,-901.2,-901.567,-900.952,-914.863,-916.105,-924.364,-903.522,-904.629,-902.931,-906.064,-907.415,-909.081,-900.711,-900.768,-933.349,-934.024,-901.951,-910.345,-932.095,-902.434,
2175,-912.516,-914.243,-929.334,-931.291,-927.331,-920.391,-922.731,-918.351,-902.085,-902.45,-901.84,-915.628,-916.858,-925.043,-904.387,-905.484,-903.802,-906.907,-908.245,-909.896,-901.601,-901.657,-933.947,-934.616,-902.83,-911.15,-932.704,-903.309,
2200,-913.301,-915.013,-929.968,-931.907,-927.983,-921.106,-923.425,-919.084,-902.963,-903.324,-902.72,-916.385,-917.605,-925.716,-905.245,-906.332,-904.664,-907.742,-909.069,-910.705,-902.483,-902.539,-934.54,-935.203,-903.701,-911.947,-933.308,-904.176,
2225,-914.079,-915.776,-930.597,-932.518,-928.629,-921.814,-924.112,-919.81,-903.833,-904.191,-903.592,-917.136,-918.344,-926.382,-906.094,-907.172,-905.519,-908.569,-909.885,-911.506,-903.357,-903.413,-935.127,-935.784,-904.565,-912.737,-933.906,-905.035,
2250,-914.85,-916.531,-931.219,-933.124,-929.27,-922.516,-924.794,-920.53,-904.695,-905.05,-904.456,-917.88,-919.077,-927.043,-906.937,-908.005,-906.367,-909.39,-910.693,-912.3,-904.223,-904.278,-935.709,-936.36,-905.42,-913.521,-934.499,-905.887,
2275,-915.614,-917.281,-931.837,-933.724,-929.905,-923.211,-925.468,-921.243,-905.55,-905.901,-905.313,-918.617,-919.804,-927.698,-907.771,-908.83,-907.206,-910.202,-911.494,-913.087,-905.082,-905.136,-936.286,-936.931,-906.268,-914.297,-935.087,-906.731,
2300,-916.371,-918.023,-932.448,-934.318,-930.534,-923.901,-926.137,-921.95,-906.396,-906.745,-906.162,-919.347,-920.523,-928.347,-908.598,-909.647,-908.038,-911.008,-912.288,-913.867,-905.933,-905.987,-936.857,-937.497,-907.109,-915.065,-935.669,-907.567,
2325,-917.122,-918.758,-933.054,-934.908,-931.157,-924.584,-926.8,-922.651,-907.235,-907.581,-907.003,-920.071,-921.236,-928.99,-909.418,-910.458,-908.863,-911.806,-913.075,-914.64,-906.776,-906.83,-937.424,-938.058,-907.941,-915.827,-936.246,-908.396,
2350,-917.865,-919.487,-933.655,-935.492,-931.775,-925.26,-927.457,-923.345,-908.067,-908.409,-907.837,-920.788,-921.943,-929.627,-910.23,-911.261,-909.68,-912.597,-913.855,-915.405,-907.612,-907.665,-937.985,-938.613,-908.767,-916.583,-936.818,-909.217,
2375,-918.602,-920.21,-934.25,-936.07,-932.387,-925.931,-928.108,-924.033,-908.891,-909.231,-908.663,-921.499,-922.644,-930.258,-911.035,-912.056,-910.49,-913.381,-914.627,-916.164,-908.44,-908.493,-938.541,-939.164,-909.585,-917.331,-937.385,-910.031,
2400,-919.332,-920.926,-934.84,-936.644,-932.993,-926.595,-928.753,-924.714,-909.708,-910.044,-909.482,-922.203,-923.338,-930.884,-911.833,-912.845,-911.293,-914.158,-915.393,-916.916,-909.261,-909.313,-939.093,-939.71,-910.395,-918.073,-937.947,-910.838,
2425,-920.056,-921.635,-935.425,-937.212,-933.595,-927.254,-929.392,-925.39,-910.518,-910.851,-910.293,-922.901,-924.025,-931.504,-912.624,-913.627,-912.088,-914.928,-916.152,-917.662,-910.074,-910.126,-939.639,-940.25,-911.199,-918.808,-938.503,-911.637,
2450,-920.773,-922.338,-936.004,-937.775,-934.19,-927.907,-930.026,-926.059,-911.32,-911.65,-911.097,-923.592,-924.707,-932.119,-913.407,-914.401,-912.876,-915.691,-916.904,-918.4,-910.881,-910.932,-940.18,-940.786,-911.995,-919.536,-939.055,-912.43,
2475,-921.484,-923.035,-936.578,-938.334,-934.781,-928.553,-930.653,-926.722,-912.115,-912.442,-911.895,-924.278,-925.382,-932.728,-914.184,-915.169,-913.658,-916.447,-917.649,-919.132,-911.68,-911.73,-940.717,-941.317,-912.784,-920.258,-939.602,-913.215,
2500,-922.188,-923.725,-937.147,-938.887,-935.366,-929.194,-931.275,-927.38,-912.903,-913.227,-912.685,-924.957,-926.052,-933.331,-914.953,-915.93,-914.432,-917.196,-918.388,-919.857,-912.471,-912.522,-941.248,-941.844,-913.566,-920.973,-940.143,-913.993,
2525,-922.886,-924.409,-937.711,-939.435,-935.945,-929.83,-931.892,-928.031,-913.684,-914.005,-913.467,-925.63,-926.715,-933.929,-915.716,-916.684,-915.199,-917.939,-919.12,-920.576,-913.256,-913.306,-941.775,-942.365,-914.341,-921.682,-940.68,-914.764,
2550,-923.578,-925.087,-938.269,-939.978,-936.52,-930.459,-932.503,-928.677,-914.458,-914.777,-914.243,-926.297,-927.373,-934.522,-916.471,-917.431,-915.959,-918.675,-919.845,-921.289,-914.034,-914.083,-942.298,-942.882,-915.109,-922.384,-941.212,-915.528,
2575,-924.263,-925.759,-938.823,-940.516,-937.089,-931.083,-933.108,-929.316,-915.225,-915.541,-915.012,-926.958,-928.024,-935.109,-917.22,-918.171,-916.713,-919.404,-920.564,-921.994,-914.805,-914.854,-942.815,-943.394,-915.87,-923.08,-941.739,-916.286,
2600,-924.942,-926.425,-939.372,-941.05,-937.654,-931.701,-933.708,-929.95,-915.985,-916.298,-915.774,-927.614,-928.67,-935.691,-917.963,-918.905,-917.46,-920.127,-921.276,-922.694,-915.568,-915.617,-943.328,-943.902,-916.625,-923.77,-942.262,-917.037,
2625,-925.616,-927.085,-939.915,-941.579,-938.213,-932.313,-934.303,-930.579,-916.738,-917.048,-916.529,-928.263,-929.309,-936.268,-918.698,-919.632,-918.2,-920.843,-921.982,-923.387,-916.325,-916.374,-943.836,-944.405,-917.372,-924.454,-942.78,-917.78,
2650,-926.283,-927.739,-940.454,-942.102,-938.767,-932.921,-934.892,-931.201,-917.485,-917.792,-917.278,-928.906,-929.943,-936.84,-919.427,-920.353,-918.933,-921.553,-922.682,-924.074,-917.076,-917.124,-944.34,-944.904,-918.113,-925.131,-943.293,-918.518,
2675,-926.944,-928.387,-940.988,-942.622,-939.316,-933.522,-935.476,-931.818,-918.225,-918.529,-918.019,-929.544,-930.572,-937.406,-920.15,-921.067,-919.66,-922.256,-923.375,-924.755,-917.819,-917.867,-944.839,-945.398,-918.847,-925.803,-943.802,-919.248,
2700,-927.599,-929.029,-941.518,-943.136,-939.86,-934.118,-936.055,-932.43,-918.958,-919.26,-918.754,-930.176,-931.194,-937.967,-920.866,-921.775,-920.381,-922.953,-924.063,-925.43,-918.556,-918.603,-945.334,-945.887,-919.575,-926.468,-944.306,-919.972,
2725,-928.248,-929.666,-942.042,-943.646,-940.4,-934.709,-936.628,-933.036,-919.685,-919.984,-919.483,-930.802,-931.812,-938.524,-921.576,-922.476,-921.095,-923.644,-924.744,-926.099,-919.286,-919.333,-945.824,-946.373,-920.296,-927.128,-944.805,-920.69,
2750,-928.892,-930.297,-942.562,-944.152,-940.934,-935.295,-937.197,-933.636,-920.405,-920.701,-920.205,-931.423,-932.423,-939.075,-922.279,-923.171,-921.802,-924.329,-925.418,-926.762,-920.01,-920.056,-946.31,-946.854,-921.011,-927.781,-945.3,-921.401,
2775,-929.53,-930.922,-943.077,-944.652,-941.464,-935.875,-937.76,-934.232,-921.118,-921.412,-920.92,-932.038,-933.029,-939.621,-922.976,-923.86,-922.503,-925.008,-926.087,-927.418,-920.727,-920.773,-946.791,-947.33,-921.719,-928.429,-945.79,-922.106,
2800,-930.162,-931.541,-943.587,-945.149,-941.989,-936.45,-938.318,-934.821,-921.826,-922.117,-921.629,-932.647,-933.63,-940.163,-923.666,-924.543,-923.198,-925.68,-926.75,-928.069,-921.438,-921.483,-947.268,-947.803,-922.421,-929.071,-946.277,-922.804,
2825,-930.788,-932.155,-944.093,-945.641,-942.509,-937.02,-938.871,-935.406,-922.527,-922.815,-922.332,-933.251,-934.225,-940.7,-924.351,-925.22,-923.887,-926.347,-927.407,-928.714,-922.142,-922.187,-947.741,-948.271,-923.117,-929.707,-946.758,-923.497,
2850,-931.409,-932.764,-944.595,-946.128,-943.025,-937.585,-939.419,-935.985,-923.221,-923.507,-923.029,-933.85,-934.815,-941.231,-925.029,-925.89,-924.569,-927.007,-928.058,-929.354,-922.841,-922.885,-948.21,-948.735,-923.806,-930.337,-947.236,-924.182,
2875,-932.024,-933.367,-945.092,-946.611,-943.536,-938.145,-939.963,-936.559,-923.91,-924.193,-923.719,-934.443,-935.399,-941.758,-925.701,-926.555,-925.246,-927.662,-928.703,-929.987,-923.532,-923.577,-948.674,-949.194,-924.489,-930.962,-947.709,-924.862,
2900,-932.633,-933.964,-945.584,-947.09,-944.042,-938.699,-940.501,-937.128,-924.592,-924.873,-924.403,-935.031,-935.979,-942.281,-926.368,-927.213,-925.916,-928.31,-929.342,-930.615,-924.218,-924.262,-949.135,-949.65,-925.166,-931.581,-948.178,-925.536,
2925,-933.237,-934.556,-946.072,-947.564,-944.544,-939.249,-941.035,-937.692,-925.268,-925.547,-925.081,-935.614,-936.553,-942.798,-927.028,-927.866,-926.58,-928.953,-929.976,-931.237,-924.898,-924.941,-949.591,-950.101,-925.837,-932.194,-948.643,-926.204,
2950,-933.836,-935.143,-946.556,-948.035,-945.041,-939.794,-941.563,-938.251,-925.938,-926.214,-925.752,-936.191,-937.122,-943.311,-927.682,-928.513,-927.239,-929.59,-930.604,-931.854,-925.571,-925.614,-950.043,-950.549,-926.502,-932.803,-949.103,-926.865,
2975,-934.429,-935.725,-947.035,-948.501,-945.534,-940.334,-942.087,-938.805,-926.602,-926.876,-926.418,-936.763,-937.686,-943.82,-928.331,-929.154,-927.891,-930.222,-931.226,-932.465,-926.238,-926.281,-950.491,-950.992,-927.161,-933.405,-949.56,-927.521,
3000,-935.017,-936.301,-947.51,-948.962,-946.022,-940.869,-942.607,-939.353,-927.26,-927.532,-927.078,-937.33,-938.244,-944.323,-928.973,-929.789,-928.538,-930.847,-931.843,-933.071,-926.9,-926.942,-950.935,-951.432,-927.815,-934.002,-950.012,-928.171,
3025,-935.6,-936.872,-947.98,-949.42,-946.506,-941.399,-943.121,-939.897,-927.913,-928.181,-927.732,-937.892,-938.798,-944.823,-929.61,-930.419,-929.179,-931.467,-932.454,-933.671,-927.555,-927.597,-951.375,-951.867,-928.462,-934.594,-950.46,-928.815,
3050,-936.178,-937.438,-948.447,-949.874,-946.986,-941.925,-943.632,-940.436,-928.559,-928.825,-928.38,-938.449,-939.347,-945.317,-930.241,-931.043,-929.814,-932.082,-933.06,-934.265,-928.205,-928.246,-951.811,-952.299,-929.103,-935.181,-950.904,-929.454,
3075,-936.75,-937.999,-948.909,-950.323,-947.461,-942.445,-944.137,-940.97,-929.2,-929.463,-929.022,-939.001,-939.891,-945.808,-930.867,-931.661,-930.443,-932.691,-933.66,-934.855,-928.849,-928.89,-952.243,-952.727,-929.739,-935.762,-951.345,-930.086,
3100,-937.317,-938.555,-949.367,-950.769,-947.933,-942.962,-944.638,-941.5,-929.835,-930.096,-929.658,-939.548,-940.43,-946.294,-931.487,-932.274,-931.067,-933.294,-934.255,-935.439,-929.487,-929.527,-952.671,-953.15,-930.369,-936.338,-951.781,-930.713,
3125,-937.879,-939.106,-949.821,-951.21,-948.399,-943.473,-945.134,-942.024,-930.464,-930.723,-930.289,-940.09,-940.964,-946.775,-932.101,-932.881,-931.685,-933.893,-934.844,-936.018,-930.119,-930.159,-953.095,-953.571,-930.993,-936.909,-952.213,-931.334,
3150,-938.436,-939.652,-950.271,-951.648,-948.862,-943.98,-945.626,-942.544,-931.087,-931.344,-930.914,-940.627,-941.494,-947.253,-932.71,-933.483,-932.297,-934.485,-935.429,-936.592,-930.745,-930.785,-953.516,-953.987,-931.612,-937.474,-952.642,-931.95,
3175,-938.988,-940.194,-950.717,-952.081,-949.321,-944.482,-946.114,-943.059,-931.705,-931.96,-931.534,-941.16,-942.018,-947.726,-933.313,-934.079,-932.904,-935.073,-936.008,-937.16,-931.366,-931.406,-953.933,-954.399,-932.225,-938.035,-953.066,-932.56,
3200,-939.535,-940.73,-951.159,-952.511,-949.775,-944.98,-946.597,-943.57,-932.317,-932.57,-932.147,-941.687,-942.538,-948.194,-933.911,-934.671,-933.506,-935.655,-936.582,-937.724,-931.982,-932.021,-954.346,-954.808,-932.833,-938.591,-953.487,-933.165,
3225,-940.078,-941.261,-951.597,-952.937,-950.226,-945.473,-947.076,-944.076,-932.924,-933.174,-932.756,-942.21,-943.053,-948.659,-934.504,-935.256,-934.102,-936.232,-937.15,-938.282,-932.592,-932.631,-954.755,-955.214,-933.435,-939.141,-953.904,-933.764,
3250,-940.615,-941.788,-952.031,-953.359,-950.672,-945.962,-947.551,-944.577,-933.526,-933.774,-933.359,-942.728,-943.564,-949.119,-935.091,-935.837,-934.693,-936.804,-937.714,-938.836,-933.196,-933.235,-955.161,-955.615,-934.032,-939.687,-954.318,-934.358,
3275,-941.147,-942.31,-952.461,-953.777,-951.114,-946.447,-948.021,-945.074,-934.122,-934.367,-933.956,-943.242,-944.07,-949.576,-935.673,-936.412,-935.279,-937.371,-938.272,-939.384,-933.795,-933.833,-955.563,-956.013,-934.624,-940.228,-954.727,-934.947,
3300,-941.675,-942.827,-952.888,-954.191,-951.553,-946.927,-948.487,-945.567,-934.713,-934.956,-934.549,-943.751,-944.572,-950.028,-936.25,-936.982,-935.859,-937.932,-938.826,-939.928,-934.389,-934.427,-955.962,-956.408,-935.21,-940.764,-955.133,-935.53,
3325,-942.198,-943.34,-953.31,-954.602,-951.987,-947.403,-948.949,-946.055,-935.298,-935.539,-935.135,-944.255,-945.069,-950.476,-936.822,-937.547,-936.434,-938.489,-939.374,-940.466,-934.977,-935.015,-956.356,-956.798,-935.791,-941.295,-955.536,-936.108,
3350,-942.716,-943.848,-953.729,-955.009,-952.418,-947.875,-949.407,-946.539,-935.878,-936.117,-935.717,-944.755,-945.561,-950.92,-937.388,-938.107,-937.004,-939.04,-939.918,-941,-935.56,-935.597,-956.748,-957.186,-936.367,-941.822,-955.934,-936.681,
3375,-943.23,-944.352,-954.144,-955.413,-952.844,-948.342,-949.86,-947.018,-936.453,-936.69,-936.294,-945.251,-946.049,-951.36,-937.95,-938.662,-937.569,-939.587,-940.457,-941.529,-936.138,-936.175,-957.136,-957.57,-936.937,-942.343,-956.329,-937.249,
3400,-943.739,-944.851,-954.555,-955.813,-953.267,-948.805,-950.31,-947.493,-937.023,-937.258,-936.865,-945.742,-946.533,-951.796,-938.506,-939.212,-938.129,-940.129,-940.991,-942.053,-936.711,-936.747,-957.52,-957.95,-937.503,-942.86,-956.721,-937.811,
3425,-944.244,-945.345,-954.962,-956.209,-953.686,-949.264,-950.756,-947.964,-937.588,-937.82,-937.431,-946.228,-947.013,-952.228,-939.057,-939.758,-938.684,-940.665,-941.52,-942.573,-937.278,-937.314,-957.901,-958.327,-938.063,-943.373,-957.109,-938.369,
3450,-944.744,-945.835,-955.366,-956.601,-954.101,-949.719,-951.197,-948.431,-938.147,-938.378,-937.992,-946.71,-947.488,-952.657,-939.604,-940.298,-939.233,-941.197,-942.044,-943.088,-937.84,-937.876,-958.278,-958.701,-938.618,-943.88,-957.494,-938.922,
3475,-945.239,-946.321,-955.766,-956.991,-954.513,-950.17,-951.635,-948.893,-938.702,-938.93,-938.548,-947.188,-947.959,-953.081,-940.145,-940.833,-939.778,-941.725,-942.564,-943.598,-938.398,-938.433,-958.652,-959.071,-939.169,-944.384,-957.875,-939.469,
3500,-945.73,-946.802,-956.163,-957.376,-954.921,-950.617,-952.068,-949.351,-939.251,-939.478,-939.099,-947.662,-948.425,-953.502,-940.682,-941.364,-940.318,-942.247,-943.079,-944.104,-938.95,-938.985,-959.023,-959.438,-939.714,-944.882,-958.253,-940.012,
3525,-946.217,-947.279,-956.556,-957.758,-955.325,-951.06,-952.498,-949.805,-939.796,-940.021,-939.645,-948.131,-948.888,-953.919,-941.214,-941.889,-940.853,-942.765,-943.589,-944.605,-939.498,-939.533,-959.391,-959.802,-940.255,-945.377,-958.627,-940.55,
3550,-946.699,-947.752,-956.946,-958.137,-955.726,-951.499,-952.924,-950.256,-940.336,-940.558,-940.186,-948.596,-949.346,-954.332,-941.741,-942.41,-941.384,-943.278,-944.095,-945.102,-940.04,-940.075,-959.755,-960.162,-940.791,-945.866,-958.998,-941.083,
3575,-947.177,-948.22,-957.332,-958.513,-956.123,-951.934,-953.346,-950.702,-940.871,-941.091,-940.723,-949.057,-949.8,-954.742,-942.264,-942.927,-941.909,-943.787,-944.596,-945.594,-940.578,-940.612,-960.116,-960.52,-941.321,-946.352,-959.366,-941.611,
3600,-947.651,-948.685,-957.714,-958.885,-956.516,-952.365,-953.765,-951.144,-941.401,-941.62,-941.254,-949.514,-950.25,-955.147,-942.781,-943.439,-942.43,-944.291,-945.093,-946.082,-941.111,-941.145,-960.473,-960.874,-941.848,-946.833,-959.73,-942.135,
3625,-948.12,-949.145,-958.093,-959.253,-956.906,-952.792,-954.179,-951.582,-941.927,-942.143,-941.781,-949.966,-950.696,-955.55,-943.294,-943.946,-942.947,-944.791,-945.585,-946.566,-941.639,-941.672,-960.828,-961.225,-942.369,-947.31,-960.091,-942.654,
3650,-948.585,-949.601,-958.469,-959.619,-957.292,-953.215,-954.59,-952.016,-942.447,-942.662,-942.303,-950.415,-951.139,-955.948,-943.803,-944.448,-943.458,-945.286,-946.073,-947.045,-942.162,-942.195,-961.179,-961.572,-942.886,-947.782,-960.449,-943.168,
3675,-949.046,-950.053,-958.842,-959.981,-957.675,-953.635,-954.997,-952.446,-942.963,-943.176,-942.82,-950.86,-951.577,-956.343,-944.307,-944.947,-943.965,-945.776,-946.557,-947.52,-942.681,-942.714,-961.527,-961.917,-943.398,-948.25,-960.804,-943.678,
3700,-949.503,-950.501,-959.211,-960.34,-958.055,-954.05,-955.401,-952.873,-943.475,-943.686,-943.333,-951.3,-952.011,-956.735,-944.806,-945.44,-944.468,-946.262,-947.036,-947.99,-943.195,-943.227,-961.872,-962.258,-943.906,-948.714,-961.155,-944.183,
3725,-949.956,-950.945,-959.576,-960.695,-958.431,-954.462,-955.801,-953.295,-943.982,-944.19,-943.841,-951.737,-952.441,-957.123,-945.301,-945.929,-944.965,-946.744,-947.511,-948.457,-943.704,-943.736,-962.214,-962.597,-944.408,-949.174,-961.503,-944.683,
3750,-950.405,-951.384,-959.939,-961.048,-958.804,-954.871,-956.197,-953.714,-944.484,-944.691,-944.345,-952.17,-952.868,-957.507,-945.791,-946.414,-945.459,-947.222,-947.982,-948.919,-944.209,-944.241,-962.553,-962.932,-944.907,-949.63,-961.849,-945.179,
3775,-950.849,-951.82,-960.298,-961.397,-959.173,-955.275,-956.59,-954.129,-944.982,-945.187,-944.844,-952.599,-953.29,-957.888,-946.278,-946.895,-945.948,-947.695,-948.448,-949.377,-944.709,-944.741,-962.889,-963.264,-945.401,-950.082,-962.191,-945.671,
3800,-951.29,-952.252,-960.654,-961.743,-959.539,-955.676,-956.979,-954.54,-945.475,-945.678,-945.338,-953.024,-953.709,-958.266,-946.759,-947.371,-946.433,-948.164,-948.91,-949.831,-945.205,-945.236,-963.221,-963.594,-945.891,-950.529,-962.53,-946.158,
3825,-951.727,-952.681,-961.007,-962.086,-959.902,-956.074,-957.365,-954.948,-945.964,-946.165,-945.828,-953.445,-954.124,-958.64,-947.237,-947.843,-946.913,-948.629,-949.369,-950.281,-945.696,-945.727,-963.551,-963.92,-946.376,-950.973,-962.866,-946.641,
3850,-952.16,-953.105,-961.357,-962.426,-960.262,-956.468,-957.747,-955.352,-946.449,-946.648,-946.314,-953.862,-954.536,-959.011,-947.71,-948.311,-947.389,-949.089,-949.823,-950.726,-946.183,-946.214,-963.878,-964.244,-946.857,-951.412,-963.199,-947.119,
3875,-952.589,-953.525,-961.703,-962.763,-960.618,-956.858,-958.126,-955.752,-946.929,-947.127,-946.796,-954.276,-954.943,-959.378,-948.179,-948.774,-947.861,-949.546,-950.272,-951.168,-946.666,-946.696,-964.202,-964.564,-947.333,-951.848,-963.529,-947.593,
3900,-953.014,-953.942,-962.046,-963.097,-960.971,-957.245,-958.501,-956.149,-947.405,-947.601,-947.273,-954.686,-955.347,-959.743,-948.643,-949.233,-948.328,-949.998,-950.718,-951.606,-947.144,-947.174,-964.523,-964.882,-947.805,-952.28,-963.856,-948.063,
3925,-953.435,-954.355,-962.387,-963.428,-961.321,-957.628,-958.874,-956.542,-947.876,-948.071,-947.745,-955.092,-955.748,-960.104,-949.104,-949.689,-948.792,-950.447,-951.16,-952.04,-947.618,-947.648,-964.841,-965.197,-948.273,-952.708,-964.18,-948.529,
3950,-953.853,-954.764,-962.724,-963.756,-961.668,-958.008,-959.242,-956.932,-948.344,-948.536,-948.214,-955.495,-956.144,-960.461,-949.56,-950.14,-949.251,-950.891,-951.598,-952.47,-948.087,-948.117,-965.156,-965.509,-948.737,-953.132,-964.501,-948.99,
3975,-954.266,-955.17,-963.058,-964.081,-962.012,-958.385,-959.608,-957.318,-948.807,-948.998,-948.678,-955.894,-956.538,-960.816,-950.012,-950.587,-949.706,-951.331,-952.032,-952.896,-948.553,-948.583,-965.469,-965.818,-949.197,-953.552,-964.819,-949.448,
4000,-954.677,-955.572,-963.39,-964.403,-962.352,-958.758,-959.97,-957.701,-949.266,-949.455,-949.138,-956.29,-956.927,-961.167,-950.461,-951.03,-950.157,-951.768,-952.462,-953.319,-949.014,-949.044,-965.778,-966.125,-949.652,-953.968,-965.135,-949.901,