X Coordinates:
9.8,10,9.6,9.4,9.2,9,8.8,8.6,8.4,8.2,8,7.8,7.6,7.4,7.2,7,6.8,6.6,6.4,6.2,6,5.8,5.6,5.4,5.2,5,4.8,4.6,4.4,4.2,4,3.8,3.6,3.4,3.2,3,2.8,2.6,2.4,2.2,2,1.8,1.6,1.4,1.2,1,0.8,0.6,0.4,0.2,0,

 Time(s),  sigmaYY(Pa) on vertices
0,-774.943,-774.943,-774.943,-774.943,-774.943,-774.943,-774.943,-774.943,-774.943,-774.943,-774.943,-774.943,-774.943,-774.943,-774.943,-774.943,-774.943,-774.943,-774.943,-774.943,-774.943,-774.943,-774.943,-774.943,-774.943,-774.943,-774.943,-774.943,-774.943,-774.943,-774.943,-774.943,-774.943,-774.943,-774.943,-774.943,-774.943,-774.943,-774.943,-774.943,-774.943,-774.943,-774.943,-774.943,-774.943,-774.943,-774.943,-774.943,-774.943,-774.943,-774.943,
25,-832.004,-837.307,-823.055,-814.852,-806.286,-800.477,-795.992,-791.877,-790.051,-787.639,-786.557,-785.722,-785.256,-784.987,-784.835,-784.753,-784.714,-784.698,-784.691,-784.689,-784.687,-784.687,-784.687,-784.687,-784.687,-784.687,-784.687,-784.688,-784.688,-784.688,-784.688,-784.688,-784.688,-784.688,-784.688,-784.688,-784.688,-784.688,-784.688,-784.688,-784.688,-784.688,-784.688,-784.688,-784.688,-784.688,-784.688,-784.688,-784.688,-784.688,-784.688,
50,-839.103,-842.944,-832.514,-826.211,-819.151,-813.882,-809.402,-804.642,-802.012,-798.218,-796.001,-793.978,-792.534,-791.453,-790.619,-789.997,-789.569,-789.276,-789.103,-788.983,-788.892,-788.851,-788.816,-788.802,-788.788,-788.78,-788.776,-788.775,-788.773,-788.773,-788.773,-788.773,-788.773,-788.773,-788.773,-788.773,-788.773,-788.773,-788.773,-788.773,-788.773,-788.773,-788.773,-788.773,-788.773,-788.773,-788.773,-788.773,-788.773,-788.773,-788.773,
75,-843.707,-846.88,-838.234,-832.922,-826.827,-822.129,-818.01,-813.409,-810.682,-806.605,-803.988,-801.449,-799.488,-797.878,-796.503,-795.364,-794.475,-793.773,-793.306,-792.937,-792.609,-792.433,-792.264,-792.182,-792.092,-792.03,-791.994,-791.972,-791.955,-791.945,-791.939,-791.935,-791.933,-791.931,-791.93,-791.93,-791.93,-791.929,-791.929,-791.929,-791.929,-791.929,-791.929,-791.929,-791.929,-791.929,-791.929,-791.929,-791.929,-791.929,-791.929,
100,-847.307,-850.077,-842.517,-837.833,-832.392,-828.13,-824.338,-819.992,-817.326,-813.265,-810.531,-807.792,-805.591,-803.7,-802,-800.518,-799.283,-798.239,-797.5,-796.878,-796.28,-795.93,-795.57,-795.378,-795.157,-794.989,-794.878,-794.806,-794.741,-794.697,-794.67,-794.65,-794.635,-794.624,-794.618,-794.614,-794.61,-794.608,-794.607,-794.606,-794.606,-794.605,-794.605,-794.605,-794.605,-794.605,-794.605,-794.605,-794.605,-794.605,-794.605,
125,-850.348,-852.841,-846.029,-841.788,-836.825,-832.9,-829.376,-825.275,-822.707,-818.75,-816.008,-813.209,-810.904,-808.868,-806.982,-805.287,-803.817,-802.522,-801.572,-800.741,-799.902,-799.387,-798.832,-798.521,-798.147,-797.848,-797.634,-797.489,-797.349,-797.247,-797.18,-797.126,-797.083,-797.051,-797.028,-797.014,-797.002,-796.993,-796.986,-796.982,-796.979,-796.977,-796.976,-796.975,-796.974,-796.974,-796.973,-796.973,-796.973,-796.973,-796.973,
150,-853.026,-855.313,-849.058,-845.149,-840.555,-836.896,-833.593,-829.709,-827.244,-823.416,-820.711,-817.913,-815.573,-813.467,-811.477,-809.652,-808.027,-806.555,-805.448,-804.457,-803.422,-802.765,-802.037,-801.612,-801.092,-800.658,-800.331,-800.103,-799.873,-799.696,-799.574,-799.473,-799.388,-799.321,-799.272,-799.237,-799.208,-799.185,-799.168,-799.155,-799.146,-799.14,-799.135,-799.131,-799.129,-799.127,-799.126,-799.125,-799.125,-799.125,-799.124,
175,-855.444,-857.571,-851.75,-848.104,-843.803,-840.363,-837.243,-833.549,-831.182,-827.484,-824.835,-822.068,-819.729,-817.596,-815.551,-813.648,-811.921,-810.325,-809.105,-807.993,-806.804,-806.033,-805.157,-804.633,-803.98,-803.419,-802.983,-802.67,-802.346,-802.088,-801.903,-801.745,-801.609,-801.497,-801.411,-801.348,-801.294,-801.25,-801.215,-801.188,-801.169,-801.154,-801.142,-801.133,-801.127,-801.122,-801.118,-801.116,-801.115,-801.114,-801.114,
200,-857.666,-859.665,-854.195,-850.763,-846.703,-843.445,-840.481,-836.952,-834.674,-831.101,-828.514,-825.794,-823.475,-821.338,-819.268,-817.321,-815.528,-813.847,-812.544,-811.342,-810.034,-809.171,-808.174,-807.565,-806.797,-806.123,-805.585,-805.193,-804.778,-804.436,-804.186,-803.968,-803.775,-803.612,-803.482,-803.386,-803.3,-803.228,-803.17,-803.123,-803.088,-803.06,-803.038,-803.02,-803.007,-802.997,-802.989,-802.985,-802.981,-802.979,-802.978,
225,-859.734,-861.626,-856.447,-853.194,-849.337,-846.234,-843.404,-840.02,-837.823,-834.366,-831.844,-829.176,-826.886,-824.761,-822.685,-820.715,-818.881,-817.142,-815.78,-814.511,-813.111,-812.174,-811.08,-810.399,-809.534,-808.761,-808.132,-807.668,-807.167,-806.745,-806.43,-806.152,-805.9,-805.684,-805.506,-805.372,-805.249,-805.146,-805.058,-804.987,-804.932,-804.888,-804.851,-804.821,-804.799,-804.781,-804.767,-804.759,-804.751,-804.748,-804.747,
250,-861.677,-863.478,-858.547,-855.445,-851.762,-848.792,-846.079,-842.824,-840.701,-837.351,-834.891,-832.278,-830.023,-827.917,-825.846,-823.869,-822.011,-820.233,-818.829,-817.511,-816.04,-815.045,-813.871,-813.132,-812.184,-811.327,-810.617,-810.088,-809.509,-809.013,-808.636,-808.3,-807.99,-807.72,-807.493,-807.319,-807.157,-807.019,-806.899,-806.8,-806.722,-806.658,-806.602,-806.558,-806.525,-806.496,-806.474,-806.46,-806.449,-806.443,-806.441,
275,-863.516,-865.239,-860.52,-857.549,-854.018,-851.164,-848.554,-845.413,-843.357,-840.106,-837.706,-835.147,-832.93,-830.849,-828.791,-826.815,-824.945,-823.142,-821.709,-820.354,-818.83,-817.79,-816.551,-815.763,-814.746,-813.817,-813.037,-812.451,-811.801,-811.237,-810.803,-810.411,-810.046,-809.723,-809.448,-809.233,-809.032,-808.856,-808.702,-808.572,-808.469,-808.383,-808.307,-808.246,-808.199,-808.159,-808.126,-808.107,-808.09,-808.082,-808.079,
300,-865.266,-866.921,-862.387,-859.532,-856.133,-853.383,-850.864,-847.825,-845.831,-842.671,-840.327,-837.821,-835.643,-833.588,-831.549,-829.581,-827.708,-825.89,-824.437,-823.056,-821.49,-820.414,-819.123,-818.296,-817.222,-816.23,-815.389,-814.753,-814.042,-813.416,-812.929,-812.486,-812.069,-811.696,-811.373,-811.118,-810.877,-810.664,-810.475,-810.314,-810.184,-810.074,-809.977,-809.897,-809.835,-809.781,-809.738,-809.711,-809.688,-809.677,-809.673,
325,-866.939,-868.534,-864.165,-861.411,-858.13,-855.472,-853.034,-850.089,-848.15,-845.074,-842.784,-840.33,-838.189,-836.163,-834.144,-832.189,-830.318,-828.493,-827.027,-825.628,-824.031,-822.928,-821.595,-820.735,-819.613,-818.569,-817.676,-816.996,-816.229,-815.547,-815.013,-814.523,-814.057,-813.637,-813.269,-812.976,-812.696,-812.447,-812.223,-812.03,-811.873,-811.739,-811.618,-811.519,-811.441,-811.373,-811.318,-811.284,-811.254,-811.24,-811.235,
350,-868.546,-870.087,-865.864,-863.201,-860.026,-857.451,-855.087,-852.225,-850.338,-847.34,-845.1,-842.695,-840.591,-838.595,-836.599,-834.659,-832.795,-830.968,-829.495,-828.083,-826.463,-825.338,-823.972,-823.085,-821.922,-820.835,-819.896,-819.178,-818.363,-817.632,-817.054,-816.521,-816.011,-815.547,-815.136,-814.807,-814.49,-814.206,-813.948,-813.723,-813.539,-813.381,-813.238,-813.118,-813.025,-812.942,-812.875,-812.833,-812.796,-812.778,-812.773,
375,-870.094,-871.587,-867.496,-864.914,-861.834,-859.334,-857.037,-854.253,-852.413,-849.486,-847.294,-844.935,-842.867,-840.9,-838.928,-837.006,-835.151,-833.327,-831.85,-830.431,-828.794,-827.652,-826.26,-825.351,-824.155,-823.03,-822.053,-821.302,-820.445,-819.669,-819.053,-818.481,-817.931,-817.426,-816.976,-816.612,-816.26,-815.943,-815.652,-815.397,-815.187,-815.005,-814.839,-814.7,-814.591,-814.493,-814.413,-814.364,-814.32,-814.298,-814.292,
400,-871.589,-873.038,-869.066,-866.559,-863.565,-861.133,-858.898,-856.184,-854.388,-851.528,-849.381,-847.066,-845.033,-843.095,-841.147,-839.243,-837.401,-835.582,-834.105,-832.682,-831.034,-829.879,-828.466,-827.538,-826.316,-825.159,-824.149,-823.37,-822.475,-821.661,-821.009,-820.403,-819.815,-819.274,-818.787,-818.392,-818.007,-817.658,-817.337,-817.053,-816.817,-816.613,-816.425,-816.267,-816.142,-816.03,-815.938,-815.881,-815.83,-815.805,-815.797,
425,-873.037,-874.447,-870.583,-868.143,-865.229,-862.859,-860.68,-858.031,-856.276,-853.478,-851.373,-849.1,-847.101,-845.191,-843.267,-841.383,-839.554,-837.743,-836.269,-834.844,-833.188,-832.024,-830.595,-829.653,-828.408,-827.225,-826.186,-825.383,-824.455,-823.607,-822.924,-822.287,-821.666,-821.091,-820.571,-820.146,-819.732,-819.353,-819.003,-818.692,-818.433,-818.206,-817.998,-817.821,-817.681,-817.555,-817.451,-817.387,-817.329,-817.301,-817.292,
450,-874.442,-875.816,-872.051,-869.673,-866.831,-864.519,-862.392,-859.804,-858.086,-855.346,-853.281,-851.048,-849.082,-847.199,-845.299,-843.434,-841.62,-839.819,-838.349,-836.925,-835.265,-834.095,-832.653,-831.7,-830.436,-829.231,-828.168,-827.343,-826.388,-825.509,-824.8,-824.134,-823.484,-822.878,-822.328,-821.877,-821.434,-821.029,-820.652,-820.315,-820.033,-819.786,-819.558,-819.364,-819.21,-819.071,-818.956,-818.884,-818.82,-818.789,-818.779,
475,-875.809,-877.149,-873.475,-871.154,-868.38,-866.121,-864.041,-861.509,-859.827,-857.141,-855.114,-852.919,-850.983,-849.127,-847.251,-845.407,-843.608,-841.817,-840.353,-838.932,-837.271,-836.096,-834.645,-833.683,-832.404,-831.181,-830.097,-829.255,-828.275,-827.37,-826.636,-825.946,-825.269,-824.636,-824.058,-823.583,-823.115,-822.685,-822.283,-821.923,-821.62,-821.354,-821.108,-820.897,-820.73,-820.579,-820.453,-820.374,-820.304,-820.27,-820.26,
500,-877.139,-878.448,-874.86,-872.591,-869.879,-867.67,-865.634,-863.155,-861.505,-858.871,-856.879,-854.721,-852.814,-850.984,-849.131,-847.307,-845.523,-843.745,-842.288,-840.871,-839.21,-838.033,-836.576,-835.606,-834.316,-833.078,-831.977,-831.119,-830.118,-829.19,-828.435,-827.723,-827.023,-826.365,-825.763,-825.265,-824.775,-824.322,-823.897,-823.516,-823.194,-822.91,-822.647,-822.421,-822.242,-822.079,-821.943,-821.858,-821.783,-821.746,-821.734,
525,-878.437,-879.718,-876.208,-873.988,-871.333,-869.17,-867.176,-864.746,-863.127,-860.541,-858.583,-856.459,-854.581,-852.776,-850.945,-849.141,-847.374,-845.608,-844.159,-842.747,-841.089,-839.911,-838.45,-837.475,-836.176,-834.926,-833.81,-832.939,-831.92,-830.972,-830.199,-829.468,-828.746,-828.067,-827.442,-826.925,-826.414,-825.94,-825.495,-825.094,-824.755,-824.455,-824.176,-823.937,-823.746,-823.572,-823.427,-823.337,-823.256,-823.216,-823.204,
550,-879.705,-880.959,-877.522,-875.348,-872.747,-870.627,-868.672,-866.287,-864.698,-862.157,-860.231,-858.14,-856.289,-854.508,-852.7,-850.915,-849.164,-847.411,-845.971,-844.566,-842.912,-841.735,-840.27,-839.292,-837.986,-836.726,-835.599,-834.717,-833.683,-832.717,-831.928,-831.18,-830.44,-829.742,-829.098,-828.563,-828.033,-827.541,-827.077,-826.658,-826.303,-825.989,-825.695,-825.443,-825.242,-825.058,-824.905,-824.809,-824.723,-824.682,-824.669,
575,-880.945,-882.174,-878.805,-876.674,-874.123,-872.043,-870.125,-867.783,-866.222,-863.723,-861.828,-859.768,-857.944,-856.186,-854.399,-852.634,-850.899,-849.16,-847.729,-846.331,-844.682,-843.507,-842.042,-841.061,-839.751,-838.483,-837.346,-836.455,-835.408,-834.428,-833.625,-832.862,-832.106,-831.391,-830.729,-830.179,-829.632,-829.123,-828.643,-828.208,-827.839,-827.511,-827.205,-826.942,-826.73,-826.538,-826.377,-826.277,-826.186,-826.142,-826.129,
600,-882.159,-883.364,-880.059,-877.968,-875.465,-873.422,-871.539,-869.238,-867.702,-865.245,-863.378,-861.348,-859.549,-857.814,-856.048,-854.302,-852.584,-850.858,-849.437,-848.047,-846.404,-845.231,-843.768,-842.786,-841.472,-840.199,-839.054,-838.156,-837.099,-836.106,-835.29,-834.515,-833.745,-833.015,-832.338,-831.774,-831.212,-830.689,-830.194,-829.745,-829.363,-829.023,-828.705,-828.431,-828.211,-828.011,-827.843,-827.738,-827.644,-827.598,-827.583,
625,-883.348,-884.531,-881.286,-879.233,-876.774,-874.768,-872.916,-870.654,-869.143,-866.724,-864.885,-862.884,-861.109,-859.396,-857.651,-855.923,-854.221,-852.51,-851.098,-849.716,-848.081,-846.912,-845.45,-844.468,-843.153,-841.876,-840.725,-839.821,-838.755,-837.752,-836.926,-836.141,-835.358,-834.616,-833.925,-833.348,-832.774,-832.238,-831.729,-831.267,-830.874,-830.524,-830.195,-829.912,-829.684,-829.476,-829.303,-829.194,-829.096,-829.048,-829.033,
650,-884.514,-885.677,-882.489,-880.471,-878.054,-876.081,-874.261,-872.035,-870.548,-868.166,-866.353,-864.379,-862.628,-860.935,-859.21,-857.501,-855.815,-854.118,-852.717,-851.344,-849.716,-848.551,-847.093,-846.112,-844.796,-843.516,-842.361,-841.453,-840.38,-839.368,-838.534,-837.739,-836.947,-836.193,-835.491,-834.903,-834.318,-833.77,-833.25,-832.777,-832.373,-832.013,-831.676,-831.384,-831.149,-830.935,-830.756,-830.643,-830.542,-830.492,-830.477,
675,-885.659,-886.802,-883.667,-881.683,-879.306,-877.366,-875.574,-873.383,-871.918,-869.571,-867.784,-865.837,-864.107,-862.435,-860.73,-859.038,-857.369,-855.686,-854.295,-852.931,-851.312,-850.152,-848.698,-847.718,-846.403,-845.123,-843.965,-843.054,-841.975,-840.956,-840.115,-839.313,-838.511,-837.748,-837.036,-836.439,-835.844,-835.286,-834.756,-834.273,-833.86,-833.492,-833.146,-832.847,-832.606,-832.386,-832.202,-832.086,-831.982,-831.931,-831.915,
700,-886.784,-887.908,-884.824,-882.872,-880.533,-878.623,-876.859,-874.701,-873.257,-870.944,-869.18,-867.259,-865.551,-863.899,-862.213,-860.539,-858.885,-857.216,-855.836,-854.481,-852.872,-851.717,-850.268,-849.291,-847.977,-846.697,-845.537,-844.624,-843.541,-842.517,-841.67,-840.862,-840.053,-839.282,-838.561,-837.957,-837.353,-836.786,-836.247,-835.755,-835.335,-834.959,-834.606,-834.301,-834.055,-833.829,-833.641,-833.522,-833.415,-833.363,-833.347,
725,-887.889,-888.996,-885.96,-884.039,-881.735,-879.854,-878.116,-875.99,-874.566,-872.285,-870.545,-868.648,-866.962,-865.329,-863.661,-862.004,-860.366,-858.712,-857.342,-855.997,-854.397,-853.248,-851.805,-850.83,-849.52,-848.241,-847.08,-846.166,-845.081,-844.052,-843.201,-842.388,-841.573,-840.795,-840.067,-839.456,-838.845,-838.271,-837.724,-837.225,-836.798,-836.416,-836.056,-835.745,-835.494,-835.265,-835.072,-834.951,-834.842,-834.789,-834.772,
750,-888.977,-890.067,-887.077,-885.184,-882.915,-881.061,-879.349,-877.252,-875.848,-873.598,-871.881,-870.007,-868.341,-866.726,-865.077,-863.437,-861.814,-860.174,-858.816,-857.48,-855.89,-854.747,-853.311,-852.34,-851.033,-849.756,-848.596,-847.681,-846.594,-845.563,-844.709,-843.891,-843.072,-842.289,-841.555,-840.938,-840.321,-839.741,-839.188,-838.682,-838.249,-837.861,-837.496,-837.18,-836.925,-836.691,-836.496,-836.372,-836.261,-836.207,-836.191,
775,-890.047,-891.121,-888.175,-886.31,-884.073,-882.246,-880.557,-878.49,-877.105,-874.884,-873.188,-871.338,-869.691,-868.094,-866.463,-864.84,-863.232,-861.606,-860.259,-858.933,-857.353,-856.217,-854.788,-853.82,-852.518,-851.243,-850.085,-849.171,-848.083,-847.05,-846.194,-845.373,-844.55,-843.763,-843.025,-842.403,-841.781,-841.196,-840.637,-840.126,-839.688,-839.295,-838.926,-838.605,-838.347,-838.11,-837.911,-837.786,-837.673,-837.618,-837.601,
800,-891.101,-892.16,-889.256,-887.416,-885.211,-883.409,-881.744,-879.704,-878.337,-876.144,-874.469,-872.641,-871.013,-869.435,-867.82,-866.214,-864.621,-863.01,-861.673,-860.357,-858.788,-857.659,-856.237,-855.273,-853.976,-852.706,-851.549,-850.636,-849.549,-848.515,-847.657,-846.835,-846.009,-845.219,-844.477,-843.852,-843.225,-842.636,-842.072,-841.557,-841.114,-840.718,-840.345,-840.021,-839.759,-839.519,-839.318,-839.191,-839.077,-839.022,-839.004,
825,-892.14,-893.184,-890.319,-888.505,-886.33,-884.552,-882.909,-880.895,-879.546,-877.381,-875.726,-873.92,-872.31,-870.749,-869.151,-867.561,-865.983,-864.386,-863.06,-861.754,-860.196,-859.074,-857.66,-856.701,-855.409,-854.143,-852.99,-852.078,-850.992,-849.959,-849.1,-848.277,-847.45,-846.657,-845.912,-845.284,-844.654,-844.062,-843.495,-842.975,-842.529,-842.13,-841.753,-841.426,-841.162,-840.92,-840.716,-840.588,-840.473,-840.417,-840.399,
850,-893.163,-894.193,-891.367,-889.578,-887.431,-885.676,-884.054,-882.066,-880.734,-878.595,-876.96,-875.174,-873.583,-872.038,-870.457,-868.882,-867.32,-865.736,-864.421,-863.126,-861.579,-860.464,-859.058,-858.104,-856.818,-855.557,-854.408,-853.499,-852.415,-851.382,-850.524,-849.7,-848.872,-848.078,-847.331,-846.701,-846.069,-845.473,-844.903,-844.381,-843.933,-843.53,-843.151,-842.821,-842.555,-842.311,-842.106,-841.977,-841.86,-841.804,-841.786,
875,-894.172,-895.189,-892.4,-890.634,-888.515,-886.782,-885.181,-883.218,-881.901,-879.788,-878.172,-876.406,-874.832,-873.305,-871.74,-870.18,-868.632,-867.063,-865.759,-864.474,-862.938,-861.83,-860.433,-859.485,-858.205,-856.95,-855.804,-854.898,-853.817,-852.786,-851.928,-851.105,-850.276,-849.482,-848.733,-848.102,-847.469,-846.871,-846.299,-845.774,-845.324,-844.92,-844.538,-844.206,-843.939,-843.693,-843.486,-843.356,-843.239,-843.182,-843.164,
900,-895.168,-896.172,-893.418,-891.674,-889.582,-887.871,-886.289,-884.35,-883.049,-880.961,-879.364,-877.618,-876.061,-874.549,-873,-871.456,-869.922,-868.366,-867.073,-865.798,-864.274,-863.174,-861.786,-860.843,-859.57,-858.321,-857.18,-856.277,-855.199,-854.17,-853.314,-852.492,-851.664,-850.87,-850.121,-849.489,-848.854,-848.255,-847.682,-847.156,-846.703,-846.298,-845.914,-845.581,-845.312,-845.065,-844.857,-844.726,-844.608,-844.551,-844.533,
925,-896.151,-897.142,-894.423,-892.7,-890.634,-888.944,-887.381,-885.465,-884.179,-882.115,-880.535,-878.809,-877.268,-875.772,-874.239,-872.71,-871.19,-869.648,-868.366,-867.102,-865.589,-864.497,-863.118,-862.18,-860.915,-859.672,-858.536,-857.637,-856.562,-855.537,-854.683,-853.862,-853.035,-852.241,-851.493,-850.861,-850.226,-849.626,-849.052,-848.524,-848.071,-847.664,-847.28,-846.945,-846.675,-846.427,-846.219,-846.087,-845.969,-845.911,-845.893,
950,-897.121,-898.1,-895.414,-893.712,-891.67,-890.001,-888.457,-886.563,-885.292,-883.251,-881.689,-879.981,-878.457,-876.976,-875.458,-873.943,-872.438,-870.91,-869.638,-868.384,-866.883,-865.799,-864.429,-863.498,-862.24,-861.004,-859.873,-858.978,-857.908,-856.886,-856.034,-855.215,-854.39,-853.598,-852.85,-852.218,-851.583,-850.984,-850.409,-849.881,-849.427,-849.02,-848.634,-848.299,-848.028,-847.78,-847.571,-847.439,-847.32,-847.262,-847.244,
975,-898.078,-899.046,-896.392,-894.71,-892.693,-891.042,-889.516,-887.644,-886.388,-884.37,-882.824,-881.134,-879.626,-878.161,-876.657,-875.158,-873.666,-872.152,-870.891,-869.647,-868.158,-867.081,-865.721,-864.796,-863.546,-862.317,-861.192,-860.302,-859.236,-858.218,-857.369,-856.553,-855.73,-854.94,-854.193,-853.562,-852.928,-852.329,-851.754,-851.226,-850.772,-850.364,-849.978,-849.643,-849.371,-849.122,-848.913,-848.781,-848.662,-848.604,-848.586,
1000,-899.024,-899.981,-897.357,-895.696,-893.701,-892.07,-890.561,-888.71,-887.468,-885.472,-883.943,-882.271,-880.778,-879.327,-877.839,-876.354,-874.876,-873.375,-872.125,-870.892,-869.414,-868.346,-866.995,-866.076,-864.834,-863.612,-862.494,-861.608,-860.548,-859.534,-858.688,-857.875,-857.055,-856.267,-855.521,-854.892,-854.259,-853.66,-853.086,-852.558,-852.105,-851.697,-851.311,-850.975,-850.704,-850.454,-850.245,-850.113,-849.994,-849.935,-849.917,
1025,-899.959,-900.904,-898.311,-896.668,-894.697,-893.084,-891.592,-889.762,-888.533,-886.559,-885.046,-883.391,-881.914,-880.477,-879.003,-877.532,-876.068,-874.58,-873.341,-872.118,-870.652,-869.592,-868.251,-867.339,-866.105,-864.891,-863.779,-862.898,-861.843,-860.834,-859.992,-859.182,-858.365,-857.579,-856.836,-856.208,-855.576,-854.979,-854.406,-853.879,-853.426,-853.018,-852.633,-852.298,-852.026,-851.777,-851.567,-851.435,-851.316,-851.258,-851.24,
1050,-900.883,-901.817,-899.254,-897.629,-895.68,-894.085,-892.609,-890.799,-889.583,-887.63,-886.133,-884.495,-883.033,-881.611,-880.151,-878.694,-877.243,-875.768,-874.54,-873.327,-871.873,-870.821,-869.491,-868.584,-867.359,-866.153,-865.048,-864.172,-863.123,-862.119,-861.281,-860.475,-859.661,-858.878,-858.138,-857.512,-856.882,-856.286,-855.714,-855.188,-854.736,-854.329,-853.944,-853.609,-853.338,-853.089,-852.879,-852.747,-852.628,-852.57,-852.552,
1075,-901.796,-902.72,-900.185,-898.578,-896.65,-895.073,-893.613,-891.822,-890.62,-888.687,-887.206,-885.584,-884.137,-882.728,-881.283,-879.839,-878.402,-876.94,-875.723,-874.52,-873.078,-872.034,-870.714,-869.814,-868.598,-867.399,-866.301,-865.431,-864.388,-863.389,-862.555,-861.753,-860.943,-860.163,-859.426,-858.802,-858.174,-857.581,-857.01,-856.486,-856.034,-855.628,-855.244,-854.91,-854.639,-854.39,-854.181,-854.05,-853.931,-853.873,-853.855,
1100,-902.698,-903.613,-901.105,-899.516,-897.609,-896.048,-894.605,-892.833,-891.643,-889.73,-888.264,-886.659,-885.226,-883.831,-882.4,-880.97,-879.545,-878.097,-876.89,-875.697,-874.267,-873.231,-871.921,-871.028,-869.82,-868.63,-867.54,-866.674,-865.638,-864.645,-863.816,-863.017,-862.211,-861.435,-860.701,-860.08,-859.454,-858.863,-858.295,-857.772,-857.322,-856.917,-856.534,-856.2,-855.93,-855.682,-855.473,-855.342,-855.223,-855.165,-855.147,
1125,-903.591,-904.495,-902.015,-900.443,-898.556,-897.012,-895.584,-893.83,-892.653,-890.76,-889.308,-887.72,-886.3,-884.919,-883.501,-882.085,-880.674,-879.238,-878.042,-876.859,-875.44,-874.414,-873.113,-872.227,-871.028,-869.847,-868.763,-867.904,-866.874,-865.887,-865.062,-864.268,-863.466,-862.694,-861.963,-861.345,-860.722,-860.133,-859.567,-859.046,-858.598,-858.194,-857.812,-857.48,-857.211,-856.963,-856.755,-856.624,-856.505,-856.447,-856.43,
1150,-904.474,-905.368,-902.914,-901.359,-899.492,-897.965,-896.551,-894.816,-893.65,-891.777,-890.34,-888.767,-887.362,-885.994,-884.589,-883.186,-881.788,-880.365,-879.179,-878.006,-876.6,-875.581,-874.291,-873.411,-872.222,-871.049,-869.973,-869.119,-868.096,-867.115,-866.295,-865.506,-864.708,-863.94,-863.213,-862.598,-861.978,-861.392,-860.828,-860.309,-859.862,-859.461,-859.08,-858.749,-858.48,-858.234,-858.026,-857.896,-857.777,-857.72,-857.702,
1175,-905.347,-906.232,-903.804,-902.265,-900.418,-898.906,-897.507,-895.79,-894.636,-892.781,-891.358,-889.801,-888.409,-887.055,-885.663,-884.273,-882.888,-881.477,-880.302,-879.14,-877.744,-876.734,-875.455,-874.582,-873.401,-872.237,-871.168,-870.32,-869.304,-868.33,-867.515,-866.73,-865.937,-865.174,-864.451,-863.839,-863.222,-862.638,-862.077,-861.561,-861.116,-860.716,-860.337,-860.007,-859.74,-859.494,-859.288,-859.157,-859.04,-858.982,-858.964,
1200,-906.211,-907.087,-904.684,-903.161,-901.333,-899.836,-898.452,-896.752,-895.609,-893.774,-892.365,-890.823,-889.444,-888.103,-886.725,-885.347,-883.974,-882.577,-881.411,-880.259,-878.876,-877.874,-876.604,-875.739,-874.567,-873.411,-872.351,-871.509,-870.499,-869.531,-868.722,-867.942,-867.154,-866.395,-865.676,-865.067,-864.454,-863.874,-863.315,-862.802,-862.359,-861.961,-861.583,-861.255,-860.989,-860.744,-860.538,-860.409,-860.291,-860.234,-860.217,
1225,-907.066,-907.933,-905.554,-904.047,-902.237,-900.756,-899.386,-897.703,-896.572,-894.754,-893.359,-891.832,-890.467,-889.138,-887.773,-886.408,-885.048,-883.663,-882.508,-881.365,-879.994,-879,-877.741,-876.882,-875.719,-874.573,-873.52,-872.684,-871.682,-870.721,-869.917,-869.142,-868.359,-867.605,-866.89,-866.285,-865.675,-865.097,-864.542,-864.031,-863.591,-863.194,-862.819,-862.492,-862.227,-861.984,-861.779,-861.65,-861.533,-861.476,-861.459,
1250,-907.912,-908.77,-906.415,-904.923,-903.132,-901.666,-900.309,-898.643,-897.523,-895.724,-894.342,-892.83,-891.478,-890.162,-888.809,-887.457,-886.109,-884.736,-883.591,-882.459,-881.099,-880.113,-878.865,-878.013,-876.859,-875.721,-874.676,-873.847,-872.852,-871.897,-871.099,-870.329,-869.552,-868.802,-868.092,-867.49,-866.884,-866.31,-865.758,-865.25,-864.812,-864.418,-864.044,-863.719,-863.455,-863.213,-863.009,-862.881,-862.765,-862.708,-862.691,
1275,-908.749,-909.598,-907.268,-905.791,-904.017,-902.566,-901.223,-899.573,-898.464,-896.682,-895.314,-893.816,-892.477,-891.173,-889.833,-888.493,-887.158,-885.797,-884.662,-883.54,-882.191,-881.214,-879.976,-879.131,-877.987,-876.857,-875.821,-874.997,-874.01,-873.062,-872.269,-871.505,-870.732,-869.988,-869.282,-868.684,-868.082,-867.511,-866.963,-866.457,-866.022,-865.63,-865.259,-864.935,-864.673,-864.432,-864.23,-864.102,-863.986,-863.93,-863.912,
1300,-909.578,-910.419,-908.111,-906.649,-904.893,-903.456,-902.126,-900.493,-899.395,-897.63,-896.275,-894.791,-893.465,-892.173,-890.846,-889.518,-888.195,-886.846,-885.721,-884.609,-883.272,-882.303,-881.075,-880.237,-879.102,-877.982,-876.953,-876.136,-875.155,-874.215,-873.428,-872.669,-871.902,-871.162,-870.461,-869.867,-869.269,-868.702,-868.157,-867.654,-867.221,-866.832,-866.463,-866.141,-865.881,-865.641,-865.439,-865.312,-865.197,-865.141,-865.124,
1325,-910.398,-911.231,-908.946,-907.498,-905.76,-904.337,-903.02,-901.402,-900.315,-898.567,-897.225,-895.756,-894.442,-893.162,-891.847,-890.532,-889.22,-887.884,-886.769,-885.666,-884.34,-883.38,-882.162,-881.331,-880.205,-879.094,-878.073,-877.262,-876.29,-875.356,-874.574,-873.821,-873.059,-872.325,-871.629,-871.039,-870.444,-869.881,-869.34,-868.84,-868.41,-868.023,-867.656,-867.337,-867.078,-866.839,-866.639,-866.513,-866.398,-866.343,-866.326,
1350,-911.21,-912.035,-909.772,-908.339,-906.617,-905.208,-903.904,-902.302,-901.225,-899.494,-898.165,-896.709,-895.408,-894.14,-892.837,-891.534,-890.234,-888.91,-887.805,-886.711,-885.398,-884.445,-883.238,-882.413,-881.297,-880.194,-879.182,-878.377,-877.412,-876.486,-875.71,-874.962,-874.206,-873.477,-872.786,-872.2,-871.609,-871.05,-870.512,-870.016,-869.589,-869.204,-868.839,-868.522,-868.265,-868.028,-867.829,-867.703,-867.589,-867.534,-867.517,
1375,-912.014,-912.831,-910.59,-909.171,-907.466,-906.07,-904.779,-903.193,-902.126,-900.412,-899.095,-897.653,-896.364,-895.108,-893.817,-892.525,-891.237,-889.925,-888.83,-887.746,-886.443,-885.499,-884.302,-883.484,-882.377,-881.284,-880.279,-879.481,-878.524,-877.604,-876.834,-876.092,-875.342,-874.618,-873.932,-873.35,-872.763,-872.208,-871.674,-871.181,-870.757,-870.374,-870.012,-869.697,-869.441,-869.206,-869.008,-868.883,-868.77,-868.715,-868.698,
1400,-912.81,-913.619,-911.4,-909.994,-908.306,-906.924,-905.645,-904.074,-903.017,-901.319,-900.015,-898.587,-897.309,-896.065,-894.786,-893.506,-892.23,-890.929,-889.843,-888.769,-887.478,-886.542,-885.355,-884.544,-883.446,-882.362,-881.366,-880.574,-879.624,-878.711,-877.948,-877.211,-876.466,-875.748,-875.067,-874.489,-873.907,-873.356,-872.825,-872.336,-871.914,-871.535,-871.175,-870.862,-870.608,-870.374,-870.177,-870.053,-869.941,-869.887,-869.87,
1425,-913.598,-914.399,-912.202,-910.81,-909.138,-907.769,-906.502,-904.946,-903.9,-902.217,-900.926,-899.51,-898.245,-897.012,-895.745,-894.477,-893.212,-891.923,-890.847,-889.782,-888.502,-887.574,-886.397,-885.593,-884.504,-883.429,-882.441,-881.656,-880.713,-879.808,-879.05,-878.32,-877.58,-876.867,-876.191,-875.618,-875.04,-874.493,-873.966,-873.48,-873.062,-872.685,-872.327,-872.016,-871.764,-871.532,-871.337,-871.213,-871.102,-871.048,-871.031,
1450,-914.379,-915.172,-912.996,-911.617,-909.961,-908.605,-907.351,-905.809,-904.773,-903.106,-901.827,-900.425,-899.171,-897.949,-896.694,-895.437,-894.184,-892.906,-891.84,-890.784,-889.516,-888.596,-887.429,-886.632,-885.552,-884.486,-883.506,-882.727,-881.792,-880.894,-880.142,-879.417,-878.684,-877.976,-877.305,-876.736,-876.163,-875.619,-875.096,-874.614,-874.199,-873.824,-873.47,-873.161,-872.91,-872.68,-872.486,-872.364,-872.253,-872.199,-872.183,
1475,-915.152,-915.938,-913.783,-912.417,-910.776,-909.433,-908.191,-906.664,-905.637,-903.986,-902.718,-901.329,-900.087,-898.877,-897.633,-896.388,-895.146,-893.879,-892.823,-891.777,-890.519,-889.607,-888.45,-887.66,-886.589,-885.532,-884.56,-883.788,-882.86,-881.97,-881.224,-880.505,-879.777,-879.075,-878.409,-877.844,-877.275,-876.736,-876.217,-875.738,-875.326,-874.954,-874.602,-874.295,-874.047,-873.818,-873.625,-873.504,-873.394,-873.341,-873.324,
1500,-915.918,-916.696,-914.561,-913.208,-911.584,-910.253,-909.022,-907.51,-906.492,-904.857,-903.601,-902.225,-900.994,-899.795,-898.562,-897.329,-896.098,-894.843,-893.795,-892.759,-891.512,-890.608,-889.461,-888.677,-887.616,-886.568,-885.604,-884.838,-883.918,-883.035,-882.295,-881.582,-880.86,-880.163,-879.502,-878.942,-878.377,-877.842,-877.327,-876.852,-876.443,-876.074,-875.724,-875.42,-875.173,-874.946,-874.755,-874.634,-874.525,-874.472,-874.456,
1525,-916.676,-917.447,-915.332,-913.992,-912.383,-911.065,-909.846,-908.347,-907.34,-905.719,-904.475,-903.112,-901.892,-900.704,-899.482,-898.26,-897.04,-895.796,-894.758,-893.731,-892.495,-891.599,-890.462,-889.685,-888.633,-887.593,-886.638,-885.878,-884.966,-884.09,-883.356,-882.648,-881.932,-881.241,-880.586,-880.03,-879.469,-878.938,-878.427,-877.956,-877.55,-877.184,-876.837,-876.535,-876.29,-876.064,-875.875,-875.755,-875.647,-875.594,-875.578,
1550,-917.427,-918.191,-916.096,-914.769,-913.174,-911.869,-910.661,-909.176,-908.178,-906.573,-905.34,-903.989,-902.781,-901.604,-900.393,-899.182,-897.973,-896.741,-895.712,-894.693,-893.469,-892.58,-891.453,-890.683,-889.64,-888.609,-887.661,-886.908,-886.004,-885.135,-884.407,-883.705,-882.995,-882.309,-881.659,-881.108,-880.552,-880.025,-879.518,-879.05,-878.647,-878.284,-877.939,-877.64,-877.396,-877.173,-876.984,-876.866,-876.758,-876.706,-876.69,
1575,-918.172,-918.928,-916.853,-915.538,-913.958,-912.665,-911.468,-909.998,-909.009,-907.419,-906.197,-904.859,-903.662,-902.495,-901.295,-900.095,-898.897,-897.675,-896.656,-895.646,-894.432,-893.552,-892.434,-891.671,-890.637,-889.615,-888.675,-887.929,-887.032,-886.17,-885.448,-884.752,-884.047,-883.368,-882.723,-882.176,-881.624,-881.101,-880.598,-880.134,-879.734,-879.374,-879.032,-878.735,-878.493,-878.271,-878.085,-877.967,-877.86,-877.808,-877.792,
1600,-918.909,-919.658,-917.602,-916.299,-914.735,-913.454,-912.268,-910.811,-909.831,-908.256,-907.045,-905.719,-904.533,-903.377,-902.188,-900.999,-899.812,-898.601,-897.59,-896.59,-895.387,-894.514,-893.406,-892.65,-891.624,-890.611,-889.679,-888.939,-888.05,-887.195,-886.48,-885.789,-885.09,-884.416,-883.776,-883.234,-882.687,-882.168,-881.669,-881.209,-880.812,-880.454,-880.116,-879.82,-879.581,-879.361,-879.175,-879.058,-878.953,-878.901,-878.885,
1625,-919.639,-920.381,-918.345,-917.054,-915.504,-914.234,-913.06,-911.616,-910.645,-909.084,-907.885,-906.571,-905.396,-904.251,-903.073,-901.894,-900.717,-899.518,-898.516,-897.525,-896.332,-895.467,-894.369,-893.619,-892.602,-891.598,-890.674,-889.94,-889.058,-888.211,-887.501,-886.817,-886.124,-885.455,-884.82,-884.282,-883.74,-883.225,-882.73,-882.274,-881.88,-881.525,-881.189,-880.896,-880.659,-880.44,-880.256,-880.14,-880.035,-879.984,-879.969,
1650,-920.362,-921.098,-919.08,-917.801,-916.265,-915.008,-913.844,-912.414,-911.452,-909.905,-908.717,-907.415,-906.251,-905.116,-903.948,-902.78,-901.614,-900.425,-899.433,-898.45,-897.268,-896.41,-895.322,-894.578,-893.571,-892.575,-891.659,-890.932,-890.057,-889.217,-888.514,-887.835,-887.147,-886.484,-885.855,-885.321,-884.783,-884.273,-883.782,-883.329,-882.939,-882.587,-882.253,-881.963,-881.727,-881.51,-881.328,-881.213,-881.109,-881.058,-881.042,
1675,-921.079,-921.807,-919.808,-918.541,-917.02,-915.774,-914.621,-913.204,-912.251,-910.718,-909.541,-908.251,-907.097,-905.973,-904.816,-903.658,-902.503,-901.324,-900.341,-899.367,-898.195,-897.345,-896.266,-895.529,-894.53,-893.543,-892.635,-891.914,-891.047,-890.214,-889.516,-888.843,-888.162,-887.504,-886.88,-886.351,-885.817,-885.311,-884.824,-884.375,-883.988,-883.639,-883.308,-883.02,-882.786,-882.571,-882.39,-882.276,-882.173,-882.122,-882.107,
1700,-921.789,-922.511,-920.53,-919.275,-917.767,-916.533,-915.39,-913.986,-913.042,-911.524,-910.357,-909.079,-907.935,-906.821,-905.675,-904.528,-903.382,-902.215,-901.24,-900.274,-899.113,-898.271,-897.202,-896.471,-895.481,-894.502,-893.602,-892.887,-892.028,-891.202,-890.51,-889.842,-889.167,-888.515,-887.896,-887.371,-886.842,-886.34,-885.857,-885.412,-885.027,-884.681,-884.353,-884.067,-883.836,-883.622,-883.443,-883.329,-883.227,-883.177,-883.162,
1725,-922.492,-923.207,-921.245,-920.001,-918.508,-917.285,-916.153,-914.762,-913.826,-912.321,-911.165,-909.899,-908.766,-907.661,-906.526,-905.389,-904.254,-903.097,-902.13,-901.174,-900.023,-899.188,-898.128,-897.404,-896.422,-895.452,-894.56,-893.851,-892.999,-892.18,-891.494,-890.833,-890.163,-889.516,-888.902,-888.382,-887.857,-887.36,-886.881,-886.439,-886.058,-885.715,-885.389,-885.106,-884.876,-884.664,-884.486,-884.374,-884.272,-884.223,-884.208,
1750,-923.189,-923.898,-921.953,-920.721,-919.241,-918.029,-916.908,-915.529,-914.602,-913.112,-911.966,-910.711,-909.588,-908.494,-907.368,-906.242,-905.117,-903.97,-903.012,-902.064,-900.924,-900.096,-899.046,-898.328,-897.355,-896.393,-895.509,-894.806,-893.961,-893.15,-892.47,-891.813,-891.149,-890.508,-889.9,-889.384,-888.863,-888.37,-887.895,-887.457,-887.079,-886.739,-886.416,-886.135,-885.907,-885.697,-885.521,-885.409,-885.308,-885.259,-885.244,
1775,-923.879,-924.582,-922.655,-921.434,-919.968,-918.767,-917.656,-916.29,-915.371,-913.894,-912.759,-911.515,-910.403,-909.318,-908.203,-907.087,-905.972,-904.835,-903.886,-902.947,-901.816,-900.996,-899.955,-899.243,-898.279,-897.326,-896.449,-895.752,-894.915,-894.11,-893.436,-892.785,-892.127,-891.491,-890.888,-890.377,-889.86,-889.371,-888.9,-888.466,-888.091,-887.754,-887.434,-887.155,-886.929,-886.721,-886.546,-886.435,-886.335,-886.287,-886.272,
1800,-924.564,-925.259,-923.351,-922.141,-920.688,-919.498,-918.397,-917.043,-916.133,-914.669,-913.545,-912.312,-911.21,-910.135,-909.03,-907.924,-906.819,-905.693,-904.752,-903.821,-902.7,-901.887,-900.855,-900.15,-899.194,-898.249,-897.38,-896.689,-895.859,-895.062,-894.393,-893.749,-893.096,-892.466,-891.867,-891.36,-890.848,-890.363,-889.896,-889.466,-889.094,-888.76,-888.442,-888.166,-887.942,-887.735,-887.562,-887.452,-887.353,-887.305,-887.29,
1825,-925.241,-925.931,-924.039,-922.841,-921.401,-920.222,-919.131,-917.79,-916.888,-915.438,-914.323,-913.102,-912.009,-910.944,-909.849,-908.753,-907.658,-906.542,-905.609,-904.686,-903.576,-902.77,-901.747,-901.048,-900.101,-899.164,-898.303,-897.618,-896.795,-896.005,-895.342,-894.703,-894.055,-893.431,-892.838,-892.335,-891.828,-891.347,-890.884,-890.457,-890.088,-889.756,-889.442,-889.168,-888.945,-888.741,-888.569,-888.46,-888.362,-888.314,-888.299,
1850,-925.913,-926.596,-924.722,-923.534,-922.108,-920.939,-919.858,-918.529,-917.636,-916.198,-915.094,-913.884,-912.801,-911.746,-910.66,-909.574,-908.489,-907.383,-906.459,-905.544,-904.443,-903.645,-902.631,-901.938,-900.999,-900.071,-899.217,-898.538,-897.723,-896.939,-896.282,-895.648,-895.007,-894.387,-893.8,-893.301,-892.798,-892.321,-891.862,-891.439,-891.073,-890.744,-890.432,-890.161,-889.94,-889.737,-889.567,-889.459,-889.362,-889.314,-889.299,
1875,-926.578,-927.255,-925.398,-924.221,-922.808,-921.65,-920.579,-919.262,-918.376,-916.952,-915.858,-914.659,-913.586,-912.54,-911.464,-910.388,-909.313,-908.216,-907.3,-906.394,-905.303,-904.511,-903.507,-902.82,-901.889,-900.969,-900.123,-899.45,-898.642,-897.865,-897.213,-896.585,-895.949,-895.335,-894.753,-894.258,-893.76,-893.287,-892.832,-892.412,-892.05,-891.724,-891.414,-891.145,-890.926,-890.725,-890.556,-890.449,-890.353,-890.306,-890.291,
1900,-927.238,-927.909,-926.068,-924.902,-923.501,-922.354,-921.293,-919.988,-919.11,-917.699,-916.615,-915.426,-914.363,-913.327,-912.261,-911.194,-910.128,-909.042,-908.134,-907.236,-906.155,-905.37,-904.374,-903.694,-902.771,-901.859,-901.02,-900.353,-899.552,-898.782,-898.136,-897.514,-896.883,-896.275,-895.697,-895.207,-894.712,-894.244,-893.793,-893.376,-893.018,-892.694,-892.387,-892.12,-891.904,-891.704,-891.536,-891.43,-891.335,-891.288,-891.274,
1925,-927.891,-928.556,-926.732,-925.577,-924.189,-923.052,-922,-920.707,-919.838,-918.439,-917.364,-916.187,-915.133,-914.106,-913.05,-911.992,-910.936,-909.86,-908.96,-908.07,-906.998,-906.221,-905.234,-904.559,-903.645,-902.741,-901.91,-901.249,-900.454,-899.691,-899.051,-898.434,-897.809,-897.205,-896.633,-896.147,-895.657,-895.192,-894.745,-894.332,-893.976,-893.656,-893.352,-893.087,-892.872,-892.674,-892.508,-892.403,-892.308,-892.262,-892.248,
1950,-928.539,-929.197,-927.39,-926.245,-924.87,-923.743,-922.701,-921.42,-920.558,-919.172,-918.107,-916.94,-915.896,-914.878,-913.832,-912.784,-911.737,-910.67,-909.779,-908.896,-907.834,-907.064,-906.086,-905.417,-904.511,-903.615,-902.791,-902.136,-901.348,-900.591,-899.957,-899.345,-898.726,-898.128,-897.56,-897.079,-896.593,-896.132,-895.689,-895.28,-894.927,-894.609,-894.308,-894.045,-893.832,-893.636,-893.471,-893.367,-893.273,-893.227,-893.213,
1975,-929.18,-929.833,-928.042,-926.907,-925.545,-924.429,-923.395,-922.126,-921.272,-919.899,-918.843,-917.687,-916.652,-915.644,-914.606,-913.568,-912.531,-911.473,-910.59,-909.715,-908.663,-907.899,-906.929,-906.267,-905.368,-904.481,-903.664,-903.014,-902.234,-901.484,-900.855,-900.249,-899.635,-899.042,-898.479,-898.002,-897.52,-897.064,-896.624,-896.219,-895.869,-895.554,-895.255,-894.995,-894.783,-894.589,-894.426,-894.322,-894.229,-894.184,-894.17,
2000,-929.816,-930.463,-928.688,-927.564,-926.213,-925.107,-924.084,-922.826,-921.979,-920.618,-919.573,-918.427,-917.401,-916.402,-915.373,-914.344,-913.317,-912.269,-911.393,-910.526,-909.483,-908.726,-907.765,-907.109,-906.218,-905.338,-904.529,-903.885,-903.112,-902.368,-901.745,-901.144,-900.535,-899.948,-899.39,-898.917,-898.439,-897.987,-897.551,-897.149,-896.802,-896.49,-896.194,-895.936,-895.726,-895.534,-895.372,-895.269,-895.177,-895.132,-895.118,
2025,-930.446,-931.087,-929.329,-928.214,-926.876,-925.78,-924.765,-923.519,-922.68,-921.332,-920.295,-919.159,-918.143,-917.153,-916.134,-915.114,-914.096,-913.057,-912.189,-911.33,-910.296,-909.546,-908.594,-907.943,-907.061,-906.189,-905.386,-904.748,-903.981,-903.245,-902.627,-902.031,-901.428,-900.845,-900.292,-899.823,-899.35,-898.901,-898.469,-898.071,-897.727,-897.418,-897.124,-896.868,-896.661,-896.47,-896.309,-896.208,-896.116,-896.071,-896.058,
2050,-931.07,-931.705,-929.963,-928.859,-927.532,-926.446,-925.441,-924.206,-923.375,-922.038,-921.011,-919.886,-918.879,-917.897,-916.887,-915.877,-914.867,-913.838,-912.978,-912.127,-911.102,-910.359,-909.415,-908.77,-907.895,-907.031,-906.235,-905.603,-904.843,-904.113,-903.501,-902.91,-902.312,-901.735,-901.187,-900.722,-900.253,-899.808,-899.38,-898.985,-898.644,-898.337,-898.046,-897.793,-897.587,-897.398,-897.238,-897.138,-897.047,-897.003,-896.989,
2075,-931.689,-932.318,-930.591,-929.497,-928.183,-927.107,-926.11,-924.886,-924.063,-922.738,-921.721,-920.605,-919.607,-918.635,-917.634,-916.632,-915.632,-914.612,-913.76,-912.916,-911.9,-911.164,-910.228,-909.589,-908.722,-907.865,-907.077,-906.45,-905.697,-904.973,-904.367,-903.781,-903.188,-902.616,-902.073,-901.612,-901.147,-900.706,-900.282,-899.89,-899.553,-899.249,-898.96,-898.709,-898.505,-898.317,-898.159,-898.059,-897.97,-897.926,-897.912,
2100,-932.302,-932.925,-931.214,-930.13,-928.828,-927.761,-926.774,-925.561,-924.745,-923.432,-922.424,-921.318,-920.329,-919.365,-918.374,-917.381,-916.39,-915.379,-914.534,-913.698,-912.692,-911.961,-911.034,-910.401,-909.542,-908.693,-907.911,-907.29,-906.544,-905.826,-905.225,-904.644,-904.057,-903.49,-902.951,-902.494,-902.034,-901.597,-901.176,-900.788,-900.453,-900.152,-899.866,-899.616,-899.414,-899.228,-899.072,-898.973,-898.884,-898.84,-898.827,
2125,-932.909,-933.527,-931.832,-930.757,-929.466,-928.409,-927.431,-926.229,-925.42,-924.12,-923.12,-922.025,-921.045,-920.089,-919.107,-918.123,-917.14,-916.138,-915.301,-914.473,-913.475,-912.752,-911.833,-911.205,-910.354,-909.512,-908.738,-908.122,-907.382,-906.671,-906.075,-905.5,-904.917,-904.355,-903.822,-903.369,-902.912,-902.479,-902.062,-901.677,-901.346,-901.047,-900.763,-900.516,-900.316,-900.132,-899.976,-899.878,-899.79,-899.747,-899.733,
2150,-933.511,-934.123,-932.443,-931.378,-930.099,-929.052,-928.083,-926.891,-926.09,-924.801,-923.81,-922.725,-921.754,-920.807,-919.833,-918.858,-917.884,-916.891,-916.062,-915.241,-914.252,-913.535,-912.624,-912.002,-911.158,-910.324,-909.557,-908.947,-908.213,-907.508,-906.918,-906.348,-905.77,-905.213,-904.684,-904.236,-903.783,-903.354,-902.94,-902.559,-902.23,-901.934,-901.653,-901.408,-901.209,-901.027,-900.873,-900.776,-900.688,-900.645,-900.632,
2175,-934.108,-934.714,-933.049,-931.994,-930.727,-929.689,-928.728,-927.547,-926.753,-925.476,-924.494,-923.418,-922.456,-921.518,-920.553,-919.586,-918.622,-917.637,-916.815,-916.001,-915.022,-914.311,-913.409,-912.792,-911.955,-911.129,-910.368,-909.764,-909.037,-908.338,-907.753,-907.188,-906.616,-906.063,-905.539,-905.094,-904.646,-904.22,-903.81,-903.432,-903.107,-902.813,-902.534,-902.292,-902.095,-901.914,-901.761,-901.665,-901.578,-901.536,-901.523,
2200,-934.699,-935.3,-933.65,-932.604,-931.348,-930.32,-929.368,-928.198,-927.41,-926.145,-925.172,-924.106,-923.152,-922.222,-921.266,-920.308,-919.352,-918.377,-917.562,-916.755,-915.785,-915.08,-914.186,-913.574,-912.746,-911.926,-911.173,-910.573,-909.853,-909.161,-908.58,-908.02,-907.453,-906.906,-906.386,-905.945,-905.501,-905.079,-904.673,-904.298,-903.975,-903.684,-903.408,-903.167,-902.972,-902.793,-902.642,-902.546,-902.46,-902.418,-902.405,
2225,-935.284,-935.88,-934.245,-933.209,-931.964,-930.945,-930.001,-928.842,-928.062,-926.808,-925.844,-924.787,-923.842,-922.92,-921.972,-921.024,-920.076,-919.109,-918.302,-917.503,-916.54,-915.842,-914.956,-914.35,-913.529,-912.717,-911.97,-911.376,-910.662,-909.975,-909.4,-908.845,-908.283,-907.741,-907.226,-906.789,-906.348,-905.93,-905.527,-905.156,-904.836,-904.548,-904.274,-904.035,-903.842,-903.664,-903.514,-903.42,-903.334,-903.293,-903.28,
2250,-935.865,-936.456,-934.835,-933.808,-932.575,-931.565,-930.629,-929.48,-928.707,-927.464,-926.509,-925.462,-924.525,-923.612,-922.673,-921.732,-920.793,-919.835,-919.035,-918.243,-917.289,-916.597,-915.719,-915.118,-914.304,-913.5,-912.759,-912.171,-911.463,-910.783,-910.213,-909.663,-909.106,-908.568,-908.058,-907.625,-907.188,-906.773,-906.375,-906.007,-905.689,-905.403,-905.132,-904.896,-904.704,-904.528,-904.379,-904.285,-904.201,-904.16,-904.147,
2275,-936.44,-937.026,-935.42,-934.402,-933.18,-932.179,-931.252,-930.113,-929.347,-928.115,-927.169,-926.131,-925.203,-924.298,-923.367,-922.435,-921.504,-920.555,-919.762,-918.977,-918.032,-917.346,-916.475,-915.88,-915.073,-914.276,-913.542,-912.959,-912.257,-911.583,-911.018,-910.473,-909.921,-909.388,-908.882,-908.453,-908.02,-907.609,-907.214,-906.849,-906.535,-906.251,-905.982,-905.748,-905.558,-905.383,-905.236,-905.143,-905.06,-905.019,-905.006,
2300,-937.01,-937.59,-935.999,-934.99,-933.779,-932.787,-931.869,-930.74,-929.981,-928.76,-927.822,-926.794,-925.874,-924.977,-924.054,-923.131,-922.208,-921.267,-920.482,-919.704,-918.767,-918.087,-917.225,-916.635,-915.835,-915.045,-914.318,-913.739,-913.044,-912.376,-911.816,-911.276,-910.729,-910.201,-909.699,-909.274,-908.845,-908.438,-908.046,-907.684,-907.373,-907.092,-906.825,-906.593,-906.405,-906.232,-906.086,-905.994,-905.911,-905.87,-905.857,
2325,-937.575,-938.15,-936.573,-935.573,-934.373,-933.39,-932.48,-931.362,-930.609,-929.399,-928.47,-927.451,-926.539,-925.65,-924.736,-923.82,-922.906,-921.974,-921.195,-920.424,-919.496,-918.822,-917.967,-917.383,-916.59,-915.807,-915.086,-914.513,-913.824,-913.162,-912.607,-912.072,-911.529,-911.006,-910.509,-910.087,-909.662,-909.259,-908.87,-908.512,-908.203,-907.925,-907.66,-907.43,-907.244,-907.072,-906.928,-906.836,-906.754,-906.714,-906.701,
2350,-938.135,-938.705,-937.142,-936.151,-934.962,-933.987,-933.086,-931.977,-931.232,-930.033,-929.111,-928.101,-927.198,-926.317,-925.411,-924.504,-923.598,-922.674,-921.902,-921.138,-920.218,-919.551,-918.703,-918.124,-917.338,-916.562,-915.848,-915.28,-914.597,-913.941,-913.391,-912.86,-912.323,-911.804,-911.311,-910.894,-910.472,-910.072,-909.687,-909.332,-909.026,-908.75,-908.488,-908.26,-908.075,-907.905,-907.762,-907.671,-907.59,-907.55,-907.538,
2375,-938.69,-939.255,-937.706,-936.724,-935.545,-934.58,-933.686,-932.588,-931.849,-930.66,-929.747,-928.747,-927.851,-926.978,-926.08,-925.181,-924.283,-923.368,-922.603,-921.845,-920.934,-920.272,-919.432,-918.858,-918.08,-917.311,-916.603,-916.04,-915.363,-914.713,-914.168,-913.642,-913.109,-912.595,-912.107,-911.693,-911.275,-910.879,-910.497,-910.145,-909.842,-909.568,-909.309,-909.083,-908.899,-908.731,-908.589,-908.499,-908.418,-908.379,-908.366,
2400,-939.24,-939.799,-938.264,-937.292,-936.123,-935.166,-934.281,-933.192,-932.46,-931.283,-930.378,-929.386,-928.498,-927.633,-926.743,-925.852,-924.963,-924.055,-923.297,-922.546,-921.643,-920.988,-920.155,-919.586,-918.815,-918.052,-917.351,-916.793,-916.122,-915.478,-914.937,-914.416,-913.888,-913.379,-912.895,-912.484,-912.07,-911.678,-911.299,-910.951,-910.65,-910.379,-910.122,-909.898,-909.716,-909.549,-909.408,-909.319,-909.239,-909.2,-909.188,
2425,-939.785,-940.339,-938.818,-937.854,-936.696,-935.748,-934.87,-933.792,-933.066,-931.899,-931.002,-930.019,-929.14,-928.282,-927.4,-926.518,-925.636,-924.736,-923.985,-923.241,-922.346,-921.696,-920.871,-920.307,-919.543,-918.787,-918.092,-917.539,-916.875,-916.236,-915.7,-915.184,-914.66,-914.155,-913.676,-913.269,-912.859,-912.47,-912.095,-911.749,-911.451,-911.182,-910.927,-910.705,-910.525,-910.36,-910.22,-910.132,-910.053,-910.014,-910.002,
2450,-940.325,-940.874,-939.367,-938.411,-937.264,-936.324,-935.454,-934.385,-933.666,-932.51,-931.621,-930.647,-929.775,-928.926,-928.052,-927.177,-926.303,-925.412,-924.667,-923.93,-923.043,-922.399,-921.581,-921.022,-920.265,-919.516,-918.827,-918.279,-917.62,-916.987,-916.456,-915.944,-915.426,-914.925,-914.45,-914.047,-913.64,-913.254,-912.883,-912.54,-912.245,-911.978,-911.726,-911.506,-911.327,-911.163,-911.025,-910.938,-910.859,-910.82,-910.809,
2475,-940.86,-941.404,-939.911,-938.964,-937.827,-936.895,-936.033,-934.974,-934.261,-933.115,-932.234,-931.269,-930.405,-929.563,-928.697,-927.83,-926.964,-926.081,-925.343,-924.612,-923.733,-923.095,-922.284,-921.731,-920.98,-920.238,-919.555,-919.011,-918.359,-917.731,-917.205,-916.698,-916.184,-915.688,-915.217,-914.817,-914.414,-914.032,-913.664,-913.324,-913.031,-912.768,-912.517,-912.299,-912.122,-911.96,-911.823,-911.736,-911.658,-911.62,-911.608,
2500,-941.39,-941.93,-940.449,-939.511,-938.384,-937.461,-936.607,-935.557,-934.851,-933.715,-932.842,-931.885,-931.03,-930.195,-929.337,-928.477,-927.619,-926.744,-926.012,-925.288,-924.417,-923.784,-922.982,-922.433,-921.688,-920.953,-920.276,-919.738,-919.091,-918.469,-917.948,-917.445,-916.936,-916.444,-915.977,-915.581,-915.182,-914.803,-914.438,-914.101,-913.811,-913.55,-913.302,-913.085,-912.91,-912.749,-912.613,-912.527,-912.45,-912.412,-912.4,
2525,-941.916,-942.451,-940.984,-940.053,-938.937,-938.022,-937.175,-936.135,-935.435,-934.31,-933.444,-932.496,-931.648,-930.821,-929.97,-929.119,-928.268,-927.401,-926.676,-925.958,-925.095,-924.468,-923.672,-923.128,-922.391,-921.662,-920.991,-920.458,-919.817,-919.2,-918.684,-918.185,-917.68,-917.193,-916.731,-916.338,-915.942,-915.567,-915.205,-914.872,-914.584,-914.325,-914.079,-913.865,-913.691,-913.531,-913.396,-913.311,-913.235,-913.197,-913.186,
2550,-942.437,-942.967,-941.513,-940.591,-939.484,-938.578,-937.739,-936.708,-936.014,-934.899,-934.041,-933.102,-932.261,-931.442,-930.598,-929.754,-928.912,-928.052,-927.334,-926.622,-925.767,-925.145,-924.357,-923.818,-923.087,-922.364,-921.699,-921.171,-920.536,-919.925,-919.413,-918.919,-918.419,-917.936,-917.477,-917.088,-916.696,-916.324,-915.965,-915.635,-915.35,-915.093,-914.849,-914.637,-914.465,-914.306,-914.173,-914.089,-914.013,-913.976,-913.964,
2575,-942.953,-943.478,-942.037,-941.124,-940.027,-939.129,-938.297,-937.275,-936.588,-935.483,-934.633,-933.702,-932.869,-932.056,-931.221,-930.384,-929.549,-928.697,-927.985,-927.281,-926.432,-925.817,-925.035,-924.501,-923.777,-923.061,-922.402,-921.878,-921.248,-920.643,-920.135,-919.646,-919.15,-918.672,-918.217,-917.832,-917.443,-917.074,-916.719,-916.391,-916.109,-915.854,-915.612,-915.402,-915.231,-915.074,-914.942,-914.859,-914.783,-914.747,-914.735,
2600,-943.464,-943.985,-942.557,-941.652,-940.565,-939.675,-938.851,-937.838,-937.157,-936.061,-935.219,-934.296,-933.471,-932.666,-931.838,-931.009,-930.181,-929.337,-928.631,-927.933,-927.092,-926.482,-925.707,-925.178,-924.46,-923.75,-923.097,-922.578,-921.954,-921.354,-920.852,-920.366,-919.875,-919.401,-918.95,-918.568,-918.183,-917.817,-917.465,-917.141,-916.861,-916.608,-916.369,-916.16,-915.991,-915.836,-915.705,-915.622,-915.547,-915.511,-915.5,
2625,-943.971,-944.487,-943.072,-942.175,-941.098,-940.216,-939.399,-938.395,-937.72,-936.635,-935.8,-934.886,-934.067,-933.27,-932.449,-931.628,-930.807,-929.97,-929.271,-928.579,-927.746,-927.141,-926.374,-925.849,-925.137,-924.434,-923.787,-923.273,-922.654,-922.06,-921.561,-921.08,-920.593,-920.123,-919.677,-919.298,-918.916,-918.554,-918.205,-917.884,-917.606,-917.356,-917.119,-916.912,-916.745,-916.59,-916.46,-916.378,-916.304,-916.268,-916.257,
2650,-944.474,-944.985,-943.583,-942.694,-941.626,-940.752,-939.942,-938.948,-938.279,-937.203,-936.376,-935.469,-934.659,-933.868,-933.055,-932.241,-931.428,-930.598,-929.905,-929.219,-928.394,-927.795,-927.034,-926.514,-925.809,-925.112,-924.47,-923.961,-923.348,-922.758,-922.265,-921.788,-921.305,-920.84,-920.397,-920.022,-919.643,-919.284,-918.939,-918.62,-918.345,-918.097,-917.862,-917.657,-917.491,-917.338,-917.209,-917.128,-917.055,-917.019,-917.008,
2675,-944.972,-945.478,-944.088,-943.207,-942.149,-941.283,-940.481,-939.495,-938.832,-937.766,-936.946,-936.048,-935.245,-934.461,-933.655,-932.848,-932.043,-931.221,-930.534,-929.854,-929.036,-928.442,-927.688,-927.173,-926.474,-925.783,-925.148,-924.642,-924.035,-923.451,-922.962,-922.489,-922.011,-921.549,-921.111,-920.739,-920.364,-920.008,-919.665,-919.349,-919.077,-918.831,-918.598,-918.395,-918.231,-918.079,-917.952,-917.871,-917.798,-917.763,-917.752,
2700,-945.465,-945.967,-944.59,-943.717,-942.668,-941.809,-941.015,-940.038,-939.381,-938.324,-937.512,-936.622,-935.825,-935.049,-934.25,-933.451,-932.652,-931.837,-931.157,-930.483,-929.672,-929.084,-928.337,-927.826,-927.133,-926.449,-925.819,-925.318,-924.716,-924.137,-923.652,-923.184,-922.71,-922.253,-921.818,-921.45,-921.078,-920.725,-920.386,-920.072,-919.802,-919.559,-919.328,-919.127,-918.964,-918.813,-918.687,-918.607,-918.535,-918.5,-918.489,
2725,-945.954,-946.452,-945.087,-944.221,-943.182,-942.331,-941.544,-940.576,-939.924,-938.877,-938.072,-937.19,-936.401,-935.631,-934.84,-934.047,-933.256,-932.449,-931.774,-931.107,-930.303,-929.72,-928.979,-928.473,-927.787,-927.108,-926.484,-925.988,-925.391,-924.818,-924.337,-923.873,-923.403,-922.95,-922.519,-922.154,-921.785,-921.436,-921.099,-920.789,-920.521,-920.28,-920.051,-919.852,-919.69,-919.541,-919.416,-919.337,-919.266,-919.231,-919.22,
2750,-946.439,-946.932,-945.579,-944.721,-943.692,-942.848,-942.068,-941.108,-940.463,-939.425,-938.627,-937.753,-936.971,-936.209,-935.424,-934.639,-933.854,-933.054,-932.386,-931.724,-930.928,-930.35,-929.616,-929.114,-928.434,-927.762,-927.143,-926.651,-926.06,-925.492,-925.015,-924.556,-924.09,-923.641,-923.214,-922.852,-922.487,-922.14,-921.807,-921.499,-921.234,-920.995,-920.768,-920.57,-920.41,-920.263,-920.139,-920.06,-919.989,-919.955,-919.944,
2775,-946.919,-947.408,-946.067,-945.217,-944.197,-943.361,-942.587,-941.636,-940.997,-939.968,-939.178,-938.311,-937.536,-936.781,-936.003,-935.225,-934.448,-933.655,-932.992,-932.337,-931.547,-930.974,-930.247,-929.75,-929.076,-928.41,-927.797,-927.309,-926.723,-926.16,-925.688,-925.232,-924.771,-924.325,-923.902,-923.544,-923.182,-922.838,-922.508,-922.203,-921.94,-921.703,-921.478,-921.282,-921.124,-920.977,-920.855,-920.777,-920.707,-920.673,-920.662,
2800,-947.395,-947.879,-946.55,-945.708,-944.697,-943.869,-943.102,-942.16,-941.526,-940.507,-939.723,-938.865,-938.096,-937.347,-936.577,-935.806,-935.035,-934.25,-933.593,-932.943,-932.161,-931.593,-930.873,-930.38,-929.712,-929.052,-928.444,-927.961,-927.38,-926.822,-926.354,-925.902,-925.445,-925.004,-924.585,-924.229,-923.87,-923.53,-923.203,-922.9,-922.64,-922.405,-922.182,-921.988,-921.831,-921.686,-921.564,-921.487,-921.418,-921.384,-921.373,
2825,-947.866,-948.346,-947.03,-946.195,-945.193,-944.372,-943.612,-942.678,-942.05,-941.04,-940.264,-939.413,-938.651,-937.909,-937.146,-936.381,-935.618,-934.839,-934.189,-933.545,-932.769,-932.207,-931.493,-931.004,-930.342,-929.688,-929.086,-928.607,-928.031,-927.478,-927.014,-926.567,-926.114,-925.676,-925.261,-924.908,-924.553,-924.216,-923.891,-923.592,-923.333,-923.101,-922.88,-922.688,-922.532,-922.388,-922.267,-922.191,-922.122,-922.088,-922.078,
2850,-948.334,-948.81,-947.505,-946.678,-945.684,-944.871,-944.118,-943.192,-942.57,-941.569,-940.799,-939.956,-939.202,-938.466,-937.709,-936.952,-936.195,-935.423,-934.779,-934.14,-933.372,-932.815,-932.107,-931.623,-930.967,-930.318,-929.721,-929.247,-928.677,-928.128,-927.669,-927.225,-926.776,-926.343,-925.931,-925.582,-925.229,-924.895,-924.574,-924.277,-924.021,-923.79,-923.571,-923.381,-923.226,-923.084,-922.964,-922.889,-922.82,-922.787,-922.777,
2875,-948.797,-949.269,-947.975,-947.156,-946.171,-945.365,-944.619,-943.702,-943.085,-942.093,-941.33,-940.494,-939.747,-939.018,-938.268,-937.517,-936.767,-936.002,-935.364,-934.731,-933.97,-933.417,-932.716,-932.236,-931.586,-930.943,-930.352,-929.881,-929.316,-928.773,-928.317,-927.878,-927.433,-927.003,-926.595,-926.249,-925.9,-925.569,-925.25,-924.956,-924.702,-924.473,-924.257,-924.068,-923.914,-923.773,-923.655,-923.58,-923.512,-923.479,-923.469,
2900,-949.256,-949.723,-948.442,-947.629,-946.654,-945.855,-945.115,-944.207,-943.595,-942.612,-941.856,-941.028,-940.287,-939.565,-938.821,-938.077,-937.334,-936.576,-935.943,-935.316,-934.562,-934.014,-933.319,-932.843,-932.199,-931.562,-930.976,-930.51,-929.95,-929.411,-928.96,-928.524,-928.083,-927.657,-927.253,-926.91,-926.564,-926.236,-925.92,-925.628,-925.377,-925.15,-924.936,-924.748,-924.597,-924.457,-924.339,-924.265,-924.198,-924.165,-924.155,
2925,-949.711,-950.174,-948.904,-948.099,-947.132,-946.34,-945.608,-944.707,-944.101,-943.126,-942.378,-941.557,-940.822,-940.106,-939.37,-938.633,-937.896,-937.145,-936.518,-935.896,-935.148,-934.606,-933.917,-933.446,-932.807,-932.176,-931.595,-931.133,-930.578,-930.044,-929.597,-929.165,-928.728,-928.306,-927.905,-927.565,-927.222,-926.897,-926.584,-926.295,-926.046,-925.822,-925.609,-925.423,-925.273,-925.134,-925.018,-924.944,-924.878,-924.845,-924.835,
2950,-950.162,-950.621,-949.362,-948.564,-947.606,-946.822,-946.095,-945.203,-944.602,-943.636,-942.894,-942.081,-941.353,-940.643,-939.913,-939.183,-938.453,-937.709,-937.087,-936.471,-935.73,-935.192,-934.509,-934.042,-933.41,-932.784,-932.208,-931.75,-931.2,-930.671,-930.228,-929.8,-929.367,-928.949,-928.552,-928.215,-927.875,-927.553,-927.242,-926.956,-926.709,-926.487,-926.276,-926.092,-925.943,-925.805,-925.69,-925.617,-925.551,-925.519,-925.509,
2975,-950.609,-951.064,-949.816,-949.025,-948.076,-947.298,-946.579,-945.694,-945.099,-944.142,-943.406,-942.6,-941.879,-941.176,-940.452,-939.728,-939.005,-938.267,-937.651,-937.041,-936.306,-935.773,-935.096,-934.634,-934.007,-933.387,-932.816,-932.362,-931.817,-931.293,-930.854,-930.43,-930,-929.586,-929.192,-928.858,-928.522,-928.202,-927.895,-927.611,-927.366,-927.146,-926.936,-926.754,-926.606,-926.47,-926.356,-926.284,-926.218,-926.187,-926.177,
3000,-951.052,-951.502,-950.266,-949.483,-948.542,-947.771,-947.057,-946.181,-945.591,-944.643,-943.914,-943.115,-942.4,-941.703,-940.986,-940.268,-939.552,-938.821,-938.21,-937.605,-936.877,-936.349,-935.678,-935.22,-934.598,-933.984,-933.418,-932.969,-932.429,-931.909,-931.474,-931.053,-930.628,-930.217,-929.827,-929.496,-929.162,-928.846,-928.541,-928.26,-928.017,-927.799,-927.592,-927.411,-927.264,-927.13,-927.016,-926.945,-926.88,-926.848,-926.839,
3025,-951.491,-951.937,-950.712,-949.935,-949.003,-948.239,-947.532,-946.663,-946.079,-945.139,-944.416,-943.625,-942.916,-942.226,-941.515,-940.804,-940.094,-939.369,-938.764,-938.165,-937.443,-936.92,-936.255,-935.801,-935.185,-934.576,-934.015,-933.57,-933.034,-932.519,-932.088,-931.672,-931.25,-930.843,-930.456,-930.128,-929.798,-929.484,-929.182,-928.903,-928.663,-928.446,-928.241,-928.062,-927.917,-927.783,-927.671,-927.6,-927.535,-927.504,-927.495,
3050,-951.926,-952.368,-951.154,-950.384,-949.46,-948.703,-948.003,-947.142,-946.562,-945.631,-944.915,-944.13,-943.428,-942.744,-942.04,-941.335,-940.631,-939.913,-939.313,-938.719,-938.004,-937.485,-936.827,-936.376,-935.766,-935.162,-934.607,-934.165,-933.635,-933.125,-932.697,-932.284,-931.866,-931.463,-931.08,-930.755,-930.427,-930.116,-929.817,-929.54,-929.302,-929.088,-928.884,-928.707,-928.563,-928.43,-928.319,-928.249,-928.185,-928.154,-928.145,
3075,-952.357,-952.795,-951.592,-950.829,-949.913,-949.163,-948.469,-947.615,-947.041,-946.118,-945.409,-944.631,-943.935,-943.257,-942.559,-941.861,-941.163,-940.451,-939.857,-939.268,-938.56,-938.046,-937.393,-936.947,-936.342,-935.744,-935.193,-934.756,-934.23,-933.724,-933.3,-932.891,-932.477,-932.077,-931.698,-931.376,-931.051,-930.743,-930.446,-930.172,-929.936,-929.723,-929.522,-929.346,-929.203,-929.072,-928.962,-928.892,-928.829,-928.798,-928.789,
3100,-952.784,-953.218,-952.026,-951.27,-950.362,-949.619,-948.931,-948.085,-947.516,-946.601,-945.898,-945.128,-944.438,-943.766,-943.074,-942.382,-941.691,-940.985,-940.396,-939.813,-939.111,-938.601,-937.954,-937.512,-936.912,-936.32,-935.774,-935.341,-934.819,-934.318,-933.898,-933.493,-933.083,-932.686,-932.31,-931.991,-931.669,-931.364,-931.069,-930.798,-930.564,-930.353,-930.153,-929.979,-929.838,-929.708,-929.599,-929.529,-929.467,-929.437,-929.427,
3125,-953.207,-953.638,-952.456,-951.707,-950.807,-950.071,-949.389,-948.551,-947.987,-947.08,-946.383,-945.62,-944.936,-944.27,-943.585,-942.899,-942.213,-941.515,-940.931,-940.353,-939.657,-939.152,-938.511,-938.072,-937.478,-936.891,-936.35,-935.92,-935.404,-934.907,-934.491,-934.089,-933.682,-933.29,-932.917,-932.601,-932.281,-931.979,-931.687,-931.419,-931.187,-930.978,-930.78,-930.607,-930.467,-930.338,-930.23,-930.161,-930.099,-930.069,-930.06,
3150,-953.627,-954.053,-952.882,-952.14,-951.248,-950.518,-949.842,-949.012,-948.453,-947.555,-946.864,-946.107,-945.43,-944.77,-944.091,-943.411,-942.732,-942.039,-941.46,-940.887,-940.198,-939.697,-939.062,-938.628,-938.039,-937.457,-936.921,-936.495,-935.983,-935.491,-935.078,-934.68,-934.277,-933.888,-933.518,-933.205,-932.889,-932.589,-932.3,-932.034,-931.804,-931.597,-931.4,-931.229,-931.09,-930.963,-930.855,-930.787,-930.726,-930.696,-930.687,
3175,-954.042,-954.465,-953.305,-952.569,-951.685,-950.962,-950.292,-949.469,-948.915,-948.025,-947.34,-946.59,-945.919,-945.265,-944.592,-943.918,-943.245,-942.559,-941.985,-941.417,-940.734,-940.238,-939.608,-939.178,-938.594,-938.017,-937.486,-937.064,-936.557,-936.069,-935.66,-935.266,-934.866,-934.481,-934.114,-933.804,-933.49,-933.193,-932.907,-932.643,-932.415,-932.21,-932.015,-931.846,-931.708,-931.582,-931.475,-931.408,-931.347,-931.318,-931.308,
3200,-954.454,-954.874,-953.723,-952.994,-952.119,-951.402,-950.738,-949.922,-949.373,-948.491,-947.813,-947.069,-946.404,-945.756,-945.089,-944.421,-943.754,-943.074,-942.505,-941.943,-941.265,-940.774,-940.15,-939.723,-939.145,-938.573,-938.047,-937.629,-937.126,-936.642,-936.237,-935.846,-935.45,-935.068,-934.705,-934.397,-934.087,-933.792,-933.508,-933.247,-933.021,-932.818,-932.625,-932.457,-932.32,-932.195,-932.089,-932.023,-931.963,-931.933,-931.924,
3225,-954.863,-955.278,-954.138,-953.416,-952.548,-951.837,-951.18,-950.371,-949.827,-948.953,-948.28,-947.544,-946.885,-946.242,-945.581,-944.919,-944.258,-943.584,-943.021,-942.463,-941.792,-941.305,-940.686,-940.264,-939.69,-939.124,-938.602,-938.188,-937.689,-937.21,-936.809,-936.421,-936.029,-935.65,-935.291,-934.985,-934.678,-934.386,-934.105,-933.845,-933.622,-933.42,-933.229,-933.062,-932.927,-932.803,-932.698,-932.632,-932.573,-932.544,-932.534,
3250,-955.267,-955.679,-954.549,-953.833,-952.973,-952.269,-951.617,-950.816,-950.277,-949.41,-948.744,-948.014,-947.361,-946.724,-946.069,-945.413,-944.758,-944.09,-943.532,-942.979,-942.314,-941.831,-941.218,-940.799,-940.231,-939.67,-939.153,-938.742,-938.248,-937.773,-937.375,-936.991,-936.603,-936.227,-935.871,-935.568,-935.263,-934.974,-934.695,-934.438,-934.217,-934.017,-933.827,-933.662,-933.529,-933.405,-933.302,-933.236,-933.177,-933.148,-933.139,
3275,-955.668,-956.077,-954.957,-954.247,-953.395,-952.697,-952.051,-951.257,-950.723,-949.864,-949.204,-948.48,-947.833,-947.202,-946.552,-945.902,-945.253,-944.591,-944.038,-943.49,-942.831,-942.353,-941.745,-941.33,-940.767,-940.21,-939.698,-939.291,-938.802,-938.331,-937.937,-937.556,-937.171,-936.799,-936.446,-936.146,-935.844,-935.557,-935.281,-935.026,-934.806,-934.608,-934.421,-934.257,-934.125,-934.002,-933.9,-933.835,-933.776,-933.748,-933.739,
3300,-956.066,-956.47,-955.361,-954.657,-953.813,-953.121,-952.481,-951.694,-951.165,-950.313,-949.659,-948.942,-948.301,-947.675,-947.032,-946.387,-945.744,-945.088,-944.54,-943.997,-943.344,-942.869,-942.267,-941.856,-941.298,-940.747,-940.239,-939.835,-939.35,-938.884,-938.493,-938.116,-937.734,-937.366,-937.015,-936.718,-936.419,-936.135,-935.861,-935.609,-935.391,-935.195,-935.009,-934.847,-934.715,-934.594,-934.492,-934.428,-934.37,-934.342,-934.333,
3325,-956.46,-956.861,-955.761,-955.064,-954.227,-953.541,-952.907,-952.127,-951.603,-950.759,-950.11,-949.4,-948.764,-948.144,-947.506,-946.868,-946.231,-945.58,-945.037,-944.499,-943.852,-943.382,-942.785,-942.377,-941.824,-941.278,-940.775,-940.375,-939.894,-939.432,-939.045,-938.671,-938.292,-937.927,-937.58,-937.286,-936.989,-936.707,-936.436,-936.186,-935.97,-935.776,-935.591,-935.431,-935.3,-935.18,-935.08,-935.016,-934.958,-934.93,-934.922,
3350,-956.85,-957.247,-956.158,-955.467,-954.637,-953.958,-953.329,-952.556,-952.036,-951.2,-950.558,-949.853,-949.223,-948.609,-947.977,-947.344,-946.713,-946.068,-945.53,-944.997,-944.355,-943.889,-943.298,-942.894,-942.346,-941.804,-941.306,-940.909,-940.433,-939.975,-939.591,-939.221,-938.846,-938.484,-938.14,-937.848,-937.554,-937.275,-937.006,-936.758,-936.544,-936.352,-936.169,-936.01,-935.88,-935.762,-935.662,-935.598,-935.541,-935.514,-935.505,
3375,-957.237,-957.631,-956.551,-955.866,-955.044,-954.371,-953.748,-952.982,-952.466,-951.638,-951.001,-950.303,-949.679,-949.07,-948.443,-947.817,-947.19,-946.552,-946.018,-945.49,-944.854,-944.392,-943.806,-943.406,-942.863,-942.326,-941.832,-941.439,-940.967,-940.513,-940.133,-939.766,-939.394,-939.035,-938.694,-938.405,-938.114,-937.837,-937.571,-937.325,-937.113,-936.922,-936.741,-936.583,-936.455,-936.338,-936.238,-936.176,-936.119,-936.092,-936.083,
3400,-957.62,-958.011,-956.94,-956.262,-955.447,-954.78,-954.162,-953.403,-952.893,-952.071,-951.44,-950.749,-950.13,-949.526,-948.906,-948.284,-947.664,-947.031,-946.502,-945.978,-945.348,-944.891,-944.31,-943.913,-943.375,-942.843,-942.353,-941.964,-941.496,-941.047,-940.67,-940.306,-939.937,-939.582,-939.244,-938.958,-938.668,-938.394,-938.13,-937.887,-937.677,-937.488,-937.308,-937.152,-937.025,-936.908,-936.81,-936.748,-936.692,-936.665,-936.656,
3425,-958,-958.387,-957.326,-956.654,-955.847,-955.185,-954.573,-953.821,-953.315,-952.501,-951.876,-951.19,-950.577,-949.979,-949.364,-948.748,-948.133,-947.506,-946.982,-946.463,-945.838,-945.385,-944.81,-944.416,-943.883,-943.356,-942.87,-942.485,-942.021,-941.575,-941.202,-940.841,-940.476,-940.123,-939.789,-939.505,-939.218,-938.947,-938.685,-938.444,-938.236,-938.048,-937.87,-937.715,-937.59,-937.474,-937.377,-937.315,-937.26,-937.233,-937.224,
3450,-958.377,-958.76,-957.709,-957.043,-956.242,-955.587,-954.981,-954.235,-953.734,-952.927,-952.307,-951.628,-951.02,-950.427,-949.818,-949.208,-948.598,-947.976,-947.457,-946.943,-946.324,-945.875,-945.304,-944.914,-944.386,-943.863,-943.383,-943,-942.541,-942.099,-941.729,-941.371,-941.009,-940.66,-940.329,-940.047,-939.763,-939.494,-939.235,-938.996,-938.789,-938.604,-938.427,-938.274,-938.149,-938.035,-937.938,-937.877,-937.822,-937.795,-937.787,
3475,-958.75,-959.13,-958.088,-957.428,-956.635,-955.985,-955.384,-954.645,-954.148,-953.349,-952.735,-952.062,-951.459,-950.872,-950.268,-949.663,-949.059,-948.443,-947.928,-947.418,-946.805,-946.36,-945.795,-945.408,-944.884,-944.367,-943.89,-943.511,-943.056,-942.618,-942.251,-941.897,-941.538,-941.192,-940.864,-940.585,-940.303,-940.037,-939.78,-939.543,-939.338,-939.154,-938.979,-938.827,-938.704,-938.59,-938.494,-938.434,-938.38,-938.353,-938.345,
3500,-959.12,-959.496,-958.464,-957.809,-957.024,-956.38,-955.784,-955.052,-954.559,-953.767,-953.159,-952.491,-951.894,-951.312,-950.714,-950.114,-949.516,-948.905,-948.395,-947.89,-947.282,-946.841,-946.281,-945.898,-945.379,-944.865,-944.393,-944.018,-943.566,-943.133,-942.769,-942.418,-942.063,-941.719,-941.394,-941.117,-940.838,-940.574,-940.32,-940.085,-939.882,-939.7,-939.526,-939.376,-939.253,-939.141,-939.046,-938.986,-938.932,-938.906,-938.898,
3525,-959.486,-959.859,-958.836,-958.188,-957.409,-956.771,-956.181,-955.455,-954.967,-954.182,-953.579,-952.917,-952.326,-951.749,-951.155,-950.562,-949.968,-949.363,-948.858,-948.357,-947.755,-947.317,-946.762,-946.383,-945.868,-945.36,-944.892,-944.52,-944.072,-943.642,-943.282,-942.934,-942.582,-942.242,-941.919,-941.645,-941.369,-941.107,-940.855,-940.622,-940.421,-940.24,-940.069,-939.919,-939.798,-939.686,-939.592,-939.533,-939.48,-939.453,-939.445,
3550,-959.85,-960.219,-959.205,-958.563,-957.791,-957.159,-956.573,-955.854,-955.371,-954.593,-953.995,-953.339,-952.753,-952.181,-951.593,-951.005,-950.417,-949.817,-949.316,-948.82,-948.223,-947.79,-947.24,-946.863,-946.354,-945.85,-945.386,-945.017,-944.574,-944.148,-943.79,-943.446,-943.097,-942.76,-942.44,-942.168,-941.895,-941.635,-941.385,-941.154,-940.955,-940.776,-940.606,-940.458,-940.338,-940.227,-940.134,-940.075,-940.022,-939.996,-939.988,
3575,-960.21,-960.576,-959.571,-958.934,-958.169,-957.543,-956.963,-956.25,-955.771,-955,-954.407,-953.758,-953.177,-952.61,-952.027,-951.444,-950.861,-950.267,-949.771,-949.279,-948.687,-948.258,-947.713,-947.34,-946.835,-946.335,-945.875,-945.51,-945.071,-944.648,-944.294,-943.953,-943.607,-943.273,-942.956,-942.687,-942.416,-942.158,-941.91,-941.682,-941.485,-941.307,-941.138,-940.992,-940.873,-940.763,-940.671,-940.612,-940.56,-940.534,-940.526,
3600,-960.566,-960.929,-959.934,-959.302,-958.544,-957.923,-957.349,-956.642,-956.167,-955.403,-954.816,-954.172,-953.596,-953.035,-952.457,-951.879,-951.302,-950.713,-950.221,-949.734,-949.147,-948.722,-948.181,-947.812,-947.311,-946.816,-946.361,-945.999,-945.563,-945.145,-944.794,-944.455,-944.112,-943.782,-943.467,-943.201,-942.932,-942.677,-942.431,-942.205,-942.009,-941.833,-941.666,-941.521,-941.403,-941.294,-941.203,-941.145,-941.093,-941.067,-941.059,
3625,-960.92,-961.28,-960.293,-959.667,-958.916,-958.301,-957.731,-957.031,-956.56,-955.803,-955.221,-954.583,-954.013,-953.456,-952.884,-952.311,-951.739,-951.155,-950.667,-950.184,-949.603,-949.181,-948.646,-948.28,-947.784,-947.293,-946.842,-946.483,-946.051,-945.636,-945.289,-944.953,-944.614,-944.286,-943.974,-943.71,-943.443,-943.191,-942.947,-942.723,-942.529,-942.355,-942.189,-942.045,-941.928,-941.82,-941.73,-941.673,-941.621,-941.596,-941.588,
3650,-961.27,-961.627,-960.649,-960.029,-959.284,-958.674,-958.11,-957.416,-956.95,-956.199,-955.622,-954.99,-954.425,-953.873,-953.306,-952.738,-952.171,-951.593,-951.11,-950.631,-950.055,-949.637,-949.106,-948.744,-948.252,-947.766,-947.318,-946.962,-946.535,-946.124,-945.779,-945.447,-945.11,-944.785,-944.476,-944.215,-943.95,-943.7,-943.459,-943.236,-943.044,-942.871,-942.707,-942.564,-942.449,-942.342,-942.252,-942.195,-942.144,-942.119,-942.112,
3675,-961.618,-961.971,-961.002,-960.387,-959.649,-959.045,-958.486,-957.798,-957.336,-956.592,-956.02,-955.394,-954.833,-954.287,-953.725,-953.162,-952.6,-952.027,-951.548,-951.074,-950.503,-950.089,-949.563,-949.203,-948.716,-948.234,-947.791,-947.438,-947.014,-946.607,-946.265,-945.936,-945.602,-945.28,-944.974,-944.715,-944.453,-944.205,-943.966,-943.745,-943.555,-943.384,-943.221,-943.079,-942.965,-942.859,-942.77,-942.714,-942.663,-942.638,-942.631,
3700,-961.962,-962.312,-961.351,-960.742,-960.011,-959.412,-958.858,-958.176,-957.718,-956.981,-956.415,-955.794,-955.238,-954.697,-954.14,-953.582,-953.025,-952.457,-951.982,-951.512,-950.947,-950.536,-950.015,-949.659,-949.176,-948.698,-948.259,-947.909,-947.489,-947.086,-946.747,-946.421,-946.09,-945.771,-945.468,-945.21,-944.951,-944.705,-944.468,-944.25,-944.061,-943.891,-943.73,-943.59,-943.476,-943.371,-943.283,-943.227,-943.177,-943.153,-943.145,
3725,-962.303,-962.65,-961.698,-961.094,-960.369,-959.776,-959.227,-958.551,-958.097,-957.367,-956.805,-956.19,-955.64,-955.103,-954.551,-953.998,-953.446,-952.883,-952.413,-951.947,-951.386,-950.98,-950.463,-950.11,-949.631,-949.158,-948.722,-948.376,-947.96,-947.56,-947.225,-946.901,-946.573,-946.257,-945.957,-945.702,-945.445,-945.201,-944.966,-944.749,-944.563,-944.394,-944.235,-944.095,-943.983,-943.879,-943.791,-943.736,-943.686,-943.662,-943.655,
3750,-962.641,-962.985,-962.041,-961.443,-960.725,-960.137,-959.592,-958.923,-958.473,-957.749,-957.193,-956.583,-956.037,-955.506,-954.958,-954.411,-953.864,-953.305,-952.839,-952.378,-951.822,-951.419,-950.907,-950.557,-950.083,-949.614,-949.182,-948.839,-948.427,-948.03,-947.698,-947.377,-947.052,-946.739,-946.441,-946.188,-945.934,-945.692,-945.459,-945.245,-945.06,-944.893,-944.735,-944.597,-944.485,-944.382,-944.295,-944.241,-944.191,-944.167,-944.16,
3775,-962.976,-963.316,-962.381,-961.789,-961.077,-960.494,-959.954,-959.291,-958.845,-958.128,-957.576,-956.972,-956.432,-955.904,-955.362,-954.819,-954.277,-953.724,-953.262,-952.805,-952.254,-951.855,-951.347,-951,-950.53,-950.066,-949.638,-949.298,-948.889,-948.496,-948.167,-947.849,-947.527,-947.216,-946.921,-946.671,-946.418,-946.179,-945.948,-945.736,-945.552,-945.387,-945.23,-945.093,-944.983,-944.881,-944.795,-944.741,-944.692,-944.668,-944.66,
3800,-963.308,-963.645,-962.719,-962.131,-961.426,-960.848,-960.313,-959.656,-959.214,-958.503,-957.957,-957.358,-956.822,-956.3,-955.762,-955.224,-954.687,-954.139,-953.681,-953.228,-952.682,-952.286,-951.784,-951.44,-950.974,-950.513,-950.089,-949.752,-949.347,-948.958,-948.631,-948.316,-947.997,-947.69,-947.397,-947.149,-946.899,-946.662,-946.433,-946.222,-946.04,-945.876,-945.721,-945.586,-945.476,-945.375,-945.29,-945.236,-945.188,-945.164,-945.157,
3825,-963.636,-963.971,-963.053,-962.471,-961.772,-961.199,-960.669,-960.018,-959.58,-958.875,-958.334,-957.74,-957.209,-956.692,-956.159,-955.626,-955.093,-954.55,-954.096,-953.647,-953.106,-952.714,-952.216,-951.875,-951.413,-950.957,-950.537,-950.203,-949.801,-949.415,-949.092,-948.78,-948.464,-948.158,-947.869,-947.623,-947.375,-947.14,-946.913,-946.704,-946.524,-946.362,-946.208,-946.074,-945.965,-945.865,-945.78,-945.727,-945.679,-945.656,-945.648,
3850,-963.963,-964.294,-963.384,-962.807,-962.114,-961.547,-961.022,-960.376,-959.942,-959.244,-958.707,-958.119,-957.593,-957.08,-956.552,-956.024,-955.496,-954.958,-954.508,-954.063,-953.527,-953.138,-952.644,-952.307,-951.849,-951.397,-950.98,-950.649,-950.251,-949.869,-949.548,-949.239,-948.926,-948.623,-948.336,-948.092,-947.847,-947.614,-947.389,-947.182,-947.004,-946.843,-946.69,-946.557,-946.449,-946.35,-946.266,-946.214,-946.166,-946.143,-946.136,
3875,-964.286,-964.614,-963.712,-963.141,-962.454,-961.892,-961.371,-960.732,-960.301,-959.609,-959.078,-958.495,-957.973,-957.465,-956.942,-956.418,-955.895,-955.361,-954.916,-954.475,-953.944,-953.558,-953.069,-952.734,-952.281,-951.832,-951.42,-951.092,-950.697,-950.318,-950.001,-949.694,-949.384,-949.084,-948.799,-948.558,-948.314,-948.083,-947.861,-947.656,-947.479,-947.319,-947.168,-947.036,-946.929,-946.831,-946.748,-946.696,-946.649,-946.626,-946.618,
3900,-964.606,-964.932,-964.038,-963.471,-962.791,-962.233,-961.718,-961.084,-960.657,-959.971,-959.444,-958.867,-958.35,-957.846,-957.328,-956.809,-956.29,-955.762,-955.32,-954.883,-954.356,-953.974,-953.49,-953.158,-952.708,-952.264,-951.855,-951.53,-951.139,-950.764,-950.449,-950.145,-949.837,-949.54,-949.258,-949.019,-948.778,-948.549,-948.328,-948.125,-947.95,-947.791,-947.642,-947.511,-947.405,-947.308,-947.226,-947.174,-947.127,-947.104,-947.097,
3925,-964.923,-965.246,-964.36,-963.799,-963.124,-962.572,-962.061,-961.433,-961.01,-960.33,-959.808,-959.236,-958.723,-958.224,-957.71,-957.196,-956.682,-956.158,-955.721,-955.287,-954.766,-954.387,-953.907,-953.578,-953.132,-952.692,-952.287,-951.965,-951.578,-951.205,-950.893,-950.592,-950.287,-949.993,-949.713,-949.476,-949.237,-949.01,-948.792,-948.59,-948.416,-948.26,-948.111,-947.982,-947.877,-947.78,-947.699,-947.647,-947.601,-947.578,-947.571,
3950,-965.238,-965.558,-964.68,-964.123,-963.455,-962.908,-962.401,-961.778,-961.36,-960.686,-960.168,-959.601,-959.093,-958.598,-958.089,-957.58,-957.071,-956.551,-956.118,-955.688,-955.171,-954.796,-954.32,-953.994,-953.553,-953.116,-952.715,-952.395,-952.012,-951.643,-951.333,-951.035,-950.733,-950.441,-950.164,-949.929,-949.692,-949.467,-949.251,-949.051,-948.879,-948.723,-948.576,-948.448,-948.344,-948.248,-948.168,-948.117,-948.071,-948.048,-948.041,
3975,-965.549,-965.866,-964.996,-964.445,-963.783,-963.24,-962.738,-962.121,-961.706,-961.038,-960.525,-959.963,-959.46,-958.97,-958.465,-957.96,-957.455,-956.941,-956.511,-956.085,-955.573,-955.201,-954.729,-954.407,-953.969,-953.537,-953.139,-952.822,-952.442,-952.076,-951.77,-951.474,-951.175,-950.885,-950.611,-950.378,-950.143,-949.92,-949.706,-949.508,-949.337,-949.183,-949.037,-948.91,-948.807,-948.712,-948.632,-948.582,-948.536,-948.514,-948.507,
4000,-965.858,-966.172,-965.31,-964.764,-964.107,-963.57,-963.072,-962.461,-962.049,-961.388,-960.879,-960.322,-959.824,-959.338,-958.837,-958.337,-957.837,-957.327,-956.901,-956.479,-955.971,-955.603,-955.135,-954.815,-954.382,-953.953,-953.559,-953.245,-952.868,-952.506,-952.202,-951.909,-951.612,-951.326,-951.054,-950.823,-950.59,-950.369,-950.157,-949.96,-949.791,-949.639,-949.494,-949.368,-949.266,-949.172,-949.093,-949.043,-948.998,-948.976,-948.969,